Pos. [°2?],Intensity [Counts]
5.1504,2918.0531
5.1614,2905.769
5.1724,2915.9729
5.1834,2861.4336
5.1944,2851.7438
5.2054,2803.7178
5.2164,2825.9883
5.2274,2881.1022
5.2384,2839.236
5.2494,2819.059
5.2604,2844.3063
5.2714,2808.1445
5.2824,2776.9602
5.2934,2716.3107
5.3044,2698.0934
5.3154,2751.5015
5.3264,2681.5486
5.3374,2679.9361
5.3484,2670.6504
5.3594,2666.5811
5.3704,2624.4533
5.3814,2644.7345
5.3924,2599.9469
5.4034,2632.6244
5.4144,2590.292
5.4254,2559.1121
5.4364,2492.6656
5.4474,2508.2596
5.4584,2477.323
5.4694,2521.2557
5.4804,2439.1902
5.4914,2429
5.5024,2461.0723
5.5134,2491.2684
5.5244,2439.1598
5.5354,2374.7296
5.5464,2343.0192
5.5574,2415.6372
5.5684,2384.9454
5.5794,2407.7876
5.5904,2392.4553
5.6014,2362.9793
5.6124,2223.966
5.6234,2251.7119
5.6344,2235.3112
5.6454,2309.0384
5.6564,2347.6372
5.6674,2287.6106
5.6784,2282.0531
5.6894,2277.0049
5.7004,2265.3732
5.7114,2296.0413
5.7224,2213.9233
5.7334,2182.35
5.7444,2139.0709
5.7554,2270.9773
5.7664,2153.1932
5.7774,2134.2921
5.7884,2237.4651
5.7994,2213.2949
5.8104,2143.4956
5.8214,2225.4257
5.8324,2152.6008
5.8434,2120.7493
5.8544,2095.0973
5.8654,2070.5674
5.8764,2150.1681
5.8874,2128.7187
5.8984,2069.5811
5.9094,2092.1623
5.9204,2111.9425
5.9314,2129.8446
5.9424,2125.972
5.9534,2124.2379
5.9644,2101.2615
5.9754,2073.2566
5.9864,2037.0664
5.9974,2034.4425
6.0084,2077.8629
6.0194,2080.5673
6.0304,2035.5393
6.0414,2044.2242
6.0524,2061.4567
6.0634,2047.1691
6.0744,2019.9513
6.0854,1972.9095
6.0964,1989.4204
6.1074,2006.0767
6.1184,1999.8702
6.1294,1969.6352
6.1404,1950.5915
6.1514,1955.6952
6.1624,1996.6431
6.1734,2010.6902
6.1844,2003.324
6.1954,2042.1406
6.2064,2046.1593
6.2174,2017.7414
6.2284,1999.5885
6.2394,1932.8023
6.2504,1968.1033
6.2614,1942.1651
6.2724,1948.1815
6.2834,1953.7807
6.2944,1978.4263
6.3054,2030.0531
6.3164,1962.0471
6.3274,2005.7326
6.3384,2036.5516
6.3494,1947.6224
6.3604,1929.4779
6.3714,1870.8318
6.3824,1917.5084
6.3934,1943.2852
6.4044,1944.2021
6.4154,1926.9852
6.4264,1912.3073
6.4374,1951.7404
6.4484,1916.7979
6.4594,1916.7345
6.4704,1911.8982
6.4814,1953.4307
6.4924,1903.4316
6.5034,1907.9027
6.5144,1851.9075
6.5254,1897.3894
6.5364,1918.9631
6.5474,1897.9725
6.5584,1883.4199
6.5694,1838.7964
6.5804,1852.9189
6.5914,1831.8329
6.6024,1951.7316
6.6134,1937.4965
6.6244,1919.2433
6.6354,1857.4307
6.6464,1832.7085
6.6574,1852.3717
6.6684,1808.7699
6.6794,1794.5753
6.6904,1857.825
6.7014,1849.2596
6.7124,1852.8471
6.7234,1857.825
6.7344,1832.3334
6.7454,1862.3677
6.7564,1826.0212
6.7674,1881.9203
6.7784,1831.3024
6.7894,1865.2782
6.8004,1852.0797
6.8114,1914.8918
6.8224,1880.4951
6.8334,1847.2035
6.8444,1830.9347
6.8554,1912.8309
6.8664,1881.9734
6.8774,1889.2813
6.8884,1904.3043
6.8994,1866.3186
6.9104,1864.9203
6.9214,1858.9027
6.9324,1892.0428
6.9434,1881.9911
6.9544,1829.4257
6.9654,1815.9381
6.9764,1832.5767
6.9874,1846.8034
6.9984,1854.2227
7.0094,1786.6155
7.0204,1810.4032
7.0314,1837.5958
7.0424,1818.7921
7.0534,1845.6008
7.0644,1841.4026
7.0754,1820.9754
7.0864,1817.6799
7.0974,1837.3127
7.1084,1843.4007
7.1194,1851.1308
7.1304,1840.5074
7.1414,1785.1209
7.1524,1847.0881
7.1634,1857.9469
7.1744,1822.1755
7.1854,1817.0118
7.1964,1845.3157
7.2074,1839.9253
7.2184,1850.3943
7.2294,1798.9793
7.2404,1822.1195
7.2514,1847.9322
7.2624,1890.3452
7.2734,1831.4896
7.2844,1895.153
7.2954,1891.2271
7.3064,1856.6027
7.3174,1862.2714
7.3284,1815.1769
7.3394,1782.2478
7.3504,1785.6947
7.3614,1837.3009
7.3724,1850.2773
7.3834,1828.704
7.3944,1756.382
7.4054,1767.3284
7.4164,1734.6376
7.4274,1780.9322
7.4384,1751.588
7.4494,1758.6903
7.4604,1744.3318
7.4714,1778.6559
7.4824,1705.209
7.4934,1789.646
7.5044,1767.1357
7.5154,1805.7187
7.5264,1746.1799
7.5374,1680.7297
7.5484,1752.3624
7.5594,1771.5309
7.5704,1681.8614
7.5814,1750.8692
7.5924,1740.1195
7.6034,1733.3324
7.6144,1775.999
7.6254,1786.6725
7.6364,1756.618
7.6474,1766.7581
7.6584,1748.0398
7.6694,1717.9194
7.6804,1736.1971
7.6914,1724.6519
7.7024,1745.1451
7.7134,1768.3303
7.7244,1696.087
7.7354,1691.5389
7.7464,1751.739
7.7574,1764.0973
7.7684,1717.152
7.7794,1755.6303
7.7904,1723.028
7.8014,1723.7916
7.8124,1767.9612
7.8234,1760.1032
7.8344,1738.4322
7.8454,1774.2694
7.8564,1765.1328
7.8674,1790.7591
7.8784,1748.0569
7.8894,1703.4602
7.9004,1742.2503
7.9114,1749.5457
7.9224,1749.8112
7.9334,1762.9616
7.9444,1713.3185
7.9554,1682.7434
7.9664,1722.7931
7.9774,1767.5556
7.9884,1741.9793
7.9994,1737.8466
8.0104,1717.1224
8.0214,1692.0236
8.0324,1759.4032
8.0434,1778.6037
8.0544,1751.2433
8.0654,1722.0757
8.0764,1778.2838
8.0874,1799.1091
8.0984,1754.3176
8.1094,1761.6067
8.1204,1744.1017
8.1314,1729.3618
8.1424,1732.4395
8.1534,1762.5841
8.1644,1749.0649
8.1754,1737.3392
8.1864,1699.702
8.1974,1631.4994
8.2084,1701.6215
8.2194,1712.7404
8.2304,1736.1475
8.2414,1704.4267
8.2524,1689.3717
8.2634,1781.6382
8.2744,1753.2915
8.2854,1716.5103
8.2964,1689.2881
8.3074,1681.4543
8.3184,1655.7124
8.3294,1677.7218
8.3404,1659.7768
8.3514,1744.6638
8.3624,1717.4277
8.3734,1719.9941
8.3844,1725.2566
8.3954,1656.0581
8.4064,1742.4518
8.4174,1671.3392
8.4284,1654.7281
8.4394,1608.24
8.4504,1678.2699
8.4614,1704.8309
8.4724,1719.8269
8.4834,1708.0472
8.4944,1753.5988
8.5054,1752.2123
8.5164,1690.7331
8.5274,1729.4484
8.5384,1725.5728
8.5494,1750.1769
8.5604,1707.9027
8.5714,1768.5084
8.5824,1761.0855
8.5934,1703.5349
8.6044,1723.084
8.6154,1699.2419
8.6264,1699.387
8.6374,1728.6372
8.6484,1729.5044
8.6594,1707.7896
8.6704,1693.2783
8.6814,1706.0531
8.6924,1715.6716
8.7034,1731.8683
8.7144,1699.9247
8.7254,1620.0423
8.7364,1636.9057
8.7474,1662.0442
8.7584,1650.1239
8.7694,1688.9292
8.7804,1734.3187
8.7914,1740.2575
8.8024,1703.7286
8.8134,1721.2626
8.8244,1721.9567
8.8354,1690.9439
8.8464,1672.5265
8.8574,1715.0296
8.8684,1697.5402
8.8794,1647.8023
8.8904,1651.6357
8.9014,1664.4681
8.9124,1693.6121
8.9234,1705.7119
8.9344,1673.0059
8.9454,1656.9115
8.9564,1703.4622
8.9674,1729.3235
8.9784,1711.1268
8.9894,1702.6863
9.0004,1656.8908
9.0114,1696.7169
9.0224,1705.8127
9.0334,1663.2251
9.0444,1630.5575
9.0554,1689.3669
9.0664,1728.5369
9.0774,1708.8908
9.0884,1668.528
9.0994,1675.3756
9.1104,1671.6062
9.1214,1652.4897
9.1324,1657.4612
9.1434,1642.6902
9.1544,1742.7425
9.1654,1656.4561
9.1764,1714.6225
9.1874,1750.2272
9.1984,1666.5328
9.2094,1653.4071
9.2204,1730.4445
9.2314,1730.2163
9.2424,1730
9.2534,1723.1308
9.2644,1709.0895
9.2754,1754.6047
9.2864,1689.2916
9.2974,1758.4208
9.3084,1738.289
9.3194,1699.3392
9.3304,1683.9586
9.3414,1635.3275
9.3524,1718.7129
9.3634,1707.9804
9.3744,1717.1931
9.3854,1655.1662
9.3964,1641.503
9.4074,1670.705
9.4184,1658.2665
9.4294,1708.7709
9.4404,1705.8763
9.4514,1793.9212
9.4624,1696.9021
9.4734,1672.4927
9.4844,1697.0427
9.4954,1667.4377
9.5064,1726.2949
9.5174,1689.2489
9.5284,1738.9527
9.5394,1680.2654
9.5504,1667.7193
9.5614,1699.0236
9.5724,1706.4573
9.5834,1742.5025
9.5944,1760.144
9.6054,1728.7551
9.6164,1714.97
9.6274,1745.3246
9.6384,1791.4778
9.6494,1716.5161
9.6604,1641.797
9.6714,1692.3895
9.6824,1688.9556
9.6934,1657.8909
9.7044,1747.5252
9.7154,1754.2211
9.7264,1695.7443
9.7374,1671.5132
9.7484,1691.4617
9.7594,1683.5575
9.7704,1688.5399
9.7814,1744.1358
9.7924,1709.3927
9.8034,1682.1092
9.8144,1698.2979
9.8254,1709.825
9.8364,1739.3098
9.8474,1695.9468
9.8584,1729.7327
9.8694,1703.7344
9.8804,1699.2306
9.8914,1714.471
9.9024,1675.0235
9.9134,1748.5665
9.9244,1768.6475
9.9354,1718.3982
9.9464,1761.1854
9.9574,1694.758
9.9684,1757.1668
9.9794,1683.7265
9.9904,1729.6289
10.0014,1745.3658
10.0124,1696.0653
10.0234,1711.2508
10.0344,1731.3717
10.0454,1726.2035
10.0564,1761.0212
10.0674,1692.0589
10.0784,1718.2228
10.0894,1786.0807
10.1004,1712.2152
10.1114,1865.8035
10.1224,1734.1055
10.1334,1799.3452
10.1444,1825.4455
10.1554,1822.0433
10.1664,1829.8465
10.1774,1728.0375
10.1884,1871.8632
10.1994,1793.9558
10.2104,1840.1135
10.2214,1790.4052
10.2324,1852.2389
10.2434,1811.7759
10.2544,1867.908
10.2654,1835.5959
10.2764,1858.1931
10.2874,1766.4671
10.2984,1792.6577
10.3094,1754.5143
10.3204,1792.1985
10.3314,1742.6903
10.3424,1775.7645
10.3534,1789.7375
10.3644,1787.0044
10.3754,1798.2301
10.3864,1810.7635
10.3974,1784.1562
10.4084,1703.5029
10.4194,1678.7661
10.4304,1701.4335
10.4414,1651.295
10.4524,1646.5315
10.4634,1664
10.4744,1685.0369
10.4854,1652.64
10.4964,1623.2081
10.5074,1696.3599
10.5184,1702.3126
10.5294,1672.1062
10.5404,1670.0963
10.5514,1646.3667
10.5624,1628.7846
10.5734,1652.0247
10.5844,1663.2305
10.5954,1609.4778
10.6064,1632.3118
10.6174,1681.4838
10.6284,1700.708
10.6394,1678.1307
10.6504,1637.7463
10.6614,1632.7817
10.6724,1648.0059
10.6834,1647.1003
10.6944,1650.6033
10.7054,1623.7757
10.7164,1561.8062
10.7274,1634.1329
10.7384,1629.5014
10.7494,1630.2567
10.7604,1597.7801
10.7714,1614.6815
10.7824,1565.3327
10.7934,1564.8909
10.8044,1620.8614
10.8154,1619.1071
10.8264,1612.7389
10.8374,1581.4483
10.8484,1643.5345
10.8594,1641.174
10.8704,1637.9405
10.8814,1577.3696
10.8924,1585.5679
10.9034,1665.2479
10.9144,1627.4149
10.9254,1656.0797
10.9364,1626.8023
10.9474,1625.3707
10.9584,1640.1829
10.9694,1596.1651
10.9804,1621.0635
10.9914,1645.236
11.0024,1644.1932
11.0134,1696.1338
11.0244,1593.3804
11.0354,1635.6785
11.0464,1642.9086
11.0574,1684.8762
11.0684,1566.7381
11.0794,1644.0265
11.0904,1599.559
11.1014,1587.7395
11.1124,1607.9146
11.1234,1686.1504
11.1344,1670.5963
11.1454,1623.6215
11.1564,1642.7685
11.1674,1666.4424
11.1784,1606.9002
11.1894,1578.1209
11.2004,1569.5094
11.2114,1599.9126
11.2224,1670.3008
11.2334,1617.8427
11.2444,1627.494
11.2554,1592.6756
11.2664,1617.8422
11.2774,1622.3421
11.2884,1597.4824
11.2994,1613.8829
11.3104,1576.7911
11.3214,1585.6459
11.3324,1564.2597
11.3434,1606.3166
11.3544,1577.727
11.3654,1518.3412
11.3764,1542.3305
11.3874,1583.5369
11.3984,1592.3422
11.4094,1602.412
11.4204,1609.5355
11.4314,1646.2242
11.4424,1662.2631
11.4534,1606.9496
11.4644,1564.212
11.4754,1587.4739
11.4864,1576.5797
11.4974,1549.5967
11.5084,1498.998
11.5194,1552.4072
11.5304,1601.3722
11.5414,1578.5614
11.5524,1585.7567
11.5634,1611.6244
11.5744,1602.7812
11.5854,1622.3511
11.5964,1573.4797
11.6074,1545.9597
11.6184,1577.3408
11.6294,1587.7276
11.6404,1565.6002
11.6514,1577.7877
11.6624,1580.5772
11.6734,1599.9873
11.6844,1581.6991
11.6954,1581.0689
11.7064,1583.1111
11.7174,1574.6549
11.7284,1595.8978
11.7394,1604
11.7504,1637.9411
11.7614,1628.408
11.7724,1641.3073
11.7834,1578.9143
11.7944,1591.7193
11.8054,1532.2054
11.8164,1579.0045
11.8274,1588.2851
11.8384,1608.8732
11.8494,1615.528
11.8604,1559.6592
11.8714,1522.176
11.8824,1570.4573
11.8934,1523.7856
11.9044,1581.3251
11.9154,1492.2919
11.9264,1634.1748
11.9374,1534.1041
11.9484,1579.6461
11.9594,1569.1967
11.9704,1608.3977
11.9814,1572.525
11.9924,1525.1284
12.0034,1550.8378
12.0144,1547.6018
12.0254,1550.3384
12.0364,1644.7256
12.0474,1610.761
12.0584,1596.3028
12.0694,1576.6923
12.0804,1624.23
12.0914,1567.3935
12.1024,1643.612
12.1134,1600.4248
12.1244,1639.3605
12.1354,1735.537
12.1464,1782.1164
12.1574,1695.7384
12.1684,1687.7616
12.1794,1651.1443
12.1904,1556.3624
12.2014,1609.4465
12.2124,1639.5928
12.2234,1596.999
12.2344,1587.4537
12.2454,1551
12.2564,1567.502
12.2674,1590.9242
12.2784,1557.3775
12.2894,1540.3304
12.3004,1538.2295
12.3114,1511.9558
12.3224,1540.1367
12.3334,1562.3825
12.3444,1543.5043
12.3554,1517.0266
12.3664,1521.5403
12.3774,1554.5104
12.3884,1594.9056
12.3994,1568.2064
12.4104,1543.0885
12.4214,1554.2537
12.4324,1565.3343
12.4434,1550.8997
12.4544,1506.5412
12.4654,1515.3669
12.4764,1578.034
12.4874,1540.5623
12.4984,1531.2164
12.5094,1534.1769
12.5204,1535.267
12.5314,1508.8652
12.5424,1508.3776
12.5534,1528.6982
12.5644,1569.4081
12.5754,1518.0647
12.5864,1524.6864
12.5974,1509.8524
12.6084,1487.7787
12.6194,1515.18
12.6304,1516.9439
12.6414,1474.8849
12.6524,1577.5504
12.6634,1500.7667
12.6744,1542.7376
12.6854,1594.2774
12.6964,1579.6327
12.7074,1550.6194
12.7184,1570.737
12.7294,1514.4296
12.7404,1471.6519
12.7514,1534.6304
12.7624,1497.8918
12.7734,1638.3985
12.7844,1519.4752
12.7954,1527.7808
12.8064,1509.9734
12.8174,1488.764
12.8284,1558.2656
12.8394,1514.5427
12.8504,1545.9694
12.8614,1484.9844
12.8724,1559.4955
12.8834,1502.4573
12.8944,1538.411
12.9054,1508.9912
12.9164,1524.3712
12.9274,1530.9037
12.9384,1551.2965
12.9494,1548.111
12.9604,1495.9404
12.9714,1467.0561
12.9824,1518.0674
12.9934,1547.0698
13.0044,1521.5222
13.0154,1531.9173
13.0264,1477.9549
13.0374,1525.4276
13.0484,1463.069
13.0594,1530.7021
13.0704,1528.0737
13.0814,1510.9312
13.0924,1507.709
13.1034,1529.4426
13.1144,1536.7476
13.1254,1480.5419
13.1364,1514.5207
13.1474,1531.9706
13.1584,1540.2821
13.1694,1515.8584
13.1804,1525.2921
13.1914,1528.1612
13.2024,1514.5089
13.2134,1521.0707
13.2244,1509.5011
13.2354,1525.5103
13.2464,1500.1406
13.2574,1476.2527
13.2684,1493.7287
13.2794,1496.4512
13.2904,1470.8113
13.3014,1508.2213
13.3124,1521.6322
13.3234,1500.4198
13.3344,1492.0826
13.3454,1484.6961
13.3564,1543.0764
13.3674,1542.1208
13.3784,1577.6271
13.3894,1552.0529
13.4004,1517.9912
13.4114,1541.8014
13.4224,1542.9641
13.4334,1467.9408
13.4444,1503.7273
13.4554,1533.5585
13.4664,1520.3569
13.4774,1488.6577
13.4884,1495.5477
13.4994,1455.8317
13.5104,1497.0365
13.5214,1575.7691
13.5324,1556.1105
13.5434,1499.0599
13.5544,1570.2219
13.5654,1509.8612
13.5764,1593.7097
13.5874,1593.2802
13.5984,1565.4203
13.6094,1577.9715
13.6204,1479.4177
13.6314,1500.5458
13.6424,1486.5201
13.6534,1498.3638
13.6644,1521.8408
13.6754,1460.3598
13.6864,1539.1152
13.6974,1445.575
13.7084,1535.9195
13.7194,1532.2281
13.7304,1607.7509
13.7414,1518.3578
13.7524,1516.6071
13.7634,1470.9499
13.7744,1516.3294
13.7854,1527.357
13.7964,1552.1459
13.8074,1496.4004
13.8184,1594.6716
13.8294,1584.3922
13.8404,1527.7214
13.8514,1576.0284
13.8624,1521.7257
13.8734,1542.9507
13.8844,1487.5197
13.8954,1515.1947
13.9064,1540.0217
13.9174,1571.9419
13.9284,1556.3468
13.9394,1609.7519
13.9504,1497.3472
13.9614,1523.4513
13.9724,1549.8595
13.9834,1597.7452
13.9944,1554.1151
14.0054,1574.7543
14.0164,1618.6067
14.0274,1612.1091
14.0384,1566.7983
14.0494,1512.062
14.0604,1550.7834
14.0714,1570.1424
14.0824,1522.3797
14.0934,1569.9558
14.1044,1579.9833
14.1154,1569.4464
14.1264,1582.6078
14.1374,1602.4218
14.1484,1579.1224
14.1594,1527.6547
14.1704,1537.0174
14.1814,1630.9677
14.1924,1609.4998
14.2034,1570.6146
14.2144,1646.4092
14.2254,1664.0087
14.2364,1623.6234
14.2474,1639.0729
14.2584,1690.8349
14.2694,1638.573
14.2804,1629.6781
14.2914,1663.885
14.3024,1625.8878
14.3134,1604.176
14.3244,1673.9869
14.3354,1737.3914
14.3464,1701.9384
14.3574,1691.6874
14.3684,1696.6067
14.3794,1635.7393
14.3904,1715.5799
14.4014,1733.994
14.4124,1721.5251
14.4234,1615.3803
14.4344,1626.6835
14.4454,1686.1791
14.4564,1648.1208
14.4674,1655.182
14.4784,1662.4587
14.4894,1659.6726
14.5004,1654.7792
14.5114,1629.1632
14.5224,1643.2434
14.5334,1631.0226
14.5444,1668.3059
14.5554,1613.23
14.5664,1663.9097
14.5774,1683.883
14.5884,1594.5219
14.5994,1665.3817
14.6104,1669
14.6214,1643.5368
14.6324,1512.103
14.6434,1570.7718
14.6544,1514.5577
14.6654,1607.1464
14.6764,1543.3471
14.6874,1523.5397
14.6984,1438.8996
14.7094,1376.8754
14.7204,1506.1799
14.7314,1505.4434
14.7424,1481.0526
14.7534,1459.2772
14.7644,1414.8088
14.7754,1428.4228
14.7864,1441.8363
14.7974,1441.352
14.8084,1442.0585
14.8194,1438.2006
14.8304,1439.6386
14.8414,1443.8014
14.8524,1445.2507
14.8634,1421.2585
14.8744,1398.6687
14.8854,1415.5841
14.8964,1428.1273
14.9074,1404.3421
14.9184,1404.0754
14.9294,1414.8276
14.9404,1325.0959
14.9514,1340.9055
14.9624,1341.0999
14.9734,1380.9627
14.9844,1384.8407
14.9954,1369.0413
15.0064,1352.2187
15.0174,1348.593
15.0284,1368.5507
15.0394,1363.5899
15.0504,1353.0089
15.0614,1380.1299
15.0724,1405.1824
15.0834,1400.6283
15.0944,1407.8383
15.1054,1420.6775
15.1164,1405.5457
15.1274,1365.226
15.1384,1373.2071
15.1494,1418.5104
15.1604,1378.0731
15.1714,1341.7817
15.1824,1356.3363
15.1934,1355.7227
15.2044,1329.8151
15.2154,1318.6431
15.2264,1366.8413
15.2374,1386.6588
15.2484,1424.7966
15.2594,1430.8476
15.2704,1451.772
15.2814,1383.4334
15.2924,1359.2911
15.3034,1399.0699
15.3144,1412.7537
15.3254,1360.9133
15.3364,1309.1995
15.3474,1434.9768
15.3584,1446.1115
15.3694,1391.0913
15.3804,1364.2787
15.3914,1337.4877
15.4024,1394.3453
15.4134,1373.8849
15.4244,1392.6682
15.4354,1332.8887
15.4464,1354.739
15.4574,1372.6156
15.4684,1418.4367
15.4794,1354.46
15.4904,1362.3545
15.5014,1359.1495
15.5124,1338.5265
15.5234,1363.6677
15.5344,1330.0166
15.5454,1341.8348
15.5564,1329.2287
15.5674,1381.1466
15.5784,1432.9865
15.5894,1337.4386
15.6004,1373.3884
15.6114,1355.652
15.6224,1372.9442
15.6334,1271.6608
15.6444,1282.5089
15.6554,1317.4198
15.6664,1296.0852
15.6774,1346.0266
15.6884,1362.8579
15.6994,1361.6676
15.7104,1335.646
15.7214,1332.2538
15.7324,1385.1389
15.7434,1460.7343
15.7544,1386.4559
15.7654,1418.8003
15.7764,1378.239
15.7874,1374.583
15.7984,1366.5597
15.8094,1382.5041
15.8204,1315.2499
15.8314,1360.3726
15.8424,1338.4085
15.8534,1317.0167
15.8644,1339.3006
15.8754,1375.876
15.8864,1379.8188
15.8974,1399.4266
15.9084,1353.913
15.9194,1341.117
15.9304,1301.4807
15.9414,1311.1565
15.9524,1325.2078
15.9634,1331.8016
15.9744,1348.6724
15.9854,1300.938
15.9964,1286.3269
16.0074,1281.528
16.0184,1313.3384
16.0294,1337.7896
16.0404,1359.7258
16.0514,1351.4493
16.0624,1330.2316
16.0734,1311.5486
16.0844,1363.8626
16.0954,1320.6949
16.1064,1332.9486
16.1174,1391.4337
16.1284,1370.1754
16.1394,1415.8232
16.1504,1398.5411
16.1614,1366.4985
16.1724,1396.1948
16.1834,1401.3038
16.1944,1358.9404
16.2054,1356.239
16.2164,1343.2458
16.2274,1343.4169
16.2384,1364.6534
16.2494,1333.2723
16.2604,1344.268
16.2714,1316.0796
16.2824,1341.5768
16.2934,1357.3235
16.3044,1352.1209
16.3154,1256.8051
16.3264,1337.6379
16.3374,1337.4454
16.3484,1395.0881
16.3594,1316.2368
16.3704,1304.3318
16.3814,1263.3254
16.3924,1304.1196
16.4034,1291.4424
16.4144,1293.9484
16.4254,1347.7346
16.4364,1279.0959
16.4474,1292.2557
16.4584,1305.1598
16.4694,1310.531
16.4804,1321.4346
16.4914,1316.3364
16.5024,1369.4025
16.5134,1301.4227
16.5244,1262.2853
16.5354,1305.82
16.5464,1299.8663
16.5574,1309.1621
16.5684,1266.2613
16.5794,1351.4896
16.5904,1330.9493
16.6014,1317.767
16.6124,1312.0225
16.6234,1302.5263
16.6344,1362.5366
16.6454,1265.2863
16.6564,1311.5959
16.6674,1326.3008
16.6784,1283.8887
16.6894,1254.2362
16.7004,1295.7417
16.7114,1288.961
16.7224,1350.8253
16.7334,1319.3541
16.7444,1341.4237
16.7554,1299.9046
16.7664,1288.5133
16.7774,1298.7188
16.7884,1303.4007
16.7994,1319.2803
16.8104,1335.8967
16.8214,1278.6802
16.8324,1242.7907
16.8434,1280.7729
16.8544,1301.5542
16.8654,1293.7432
16.8764,1291.947
16.8874,1345.5881
16.8984,1363.146
16.9094,1348.4975
16.9204,1298.6935
16.9314,1325.2126
16.9424,1318.4418
16.9534,1303.3275
16.9644,1337.531
16.9754,1321.7855
16.9864,1338.5842
16.9974,1348.2182
17.0084,1310.9674
17.0194,1319.0345
17.0304,1362.1992
17.0414,1307.2947
17.0524,1358.4811
17.0634,1306.5041
17.0744,1289.447
17.0854,1324.1043
17.0964,1388.3733
17.1074,1366.8721
17.1184,1393.2405
17.1294,1370.6046
17.1404,1319.7118
17.1514,1322.707
17.1624,1311.2654
17.1734,1321.294
17.1844,1328.2158
17.1954,1371.773
17.2064,1375.529
17.2174,1254.4343
17.2284,1328.1256
17.2394,1291.0549
17.2504,1260.3264
17.2614,1262.646
17.2724,1291.2449
17.2834,1240.5417
17.2944,1306.5916
17.3054,1288.4542
17.3164,1348.4303
17.3274,1316.8819
17.3384,1277.0305
17.3494,1277.0726
17.3604,1213.6197
17.3714,1322.3942
17.3824,1274.0983
17.3934,1266.6757
17.4044,1331.4404
17.4154,1291.1513
17.4264,1261.6564
17.4374,1290.9517
17.4484,1255.8154
17.4594,1332.2211
17.4704,1275.5354
17.4814,1267.1249
17.4924,1262.438
17.5034,1257.0059
17.5144,1253.2641
17.5254,1282.6549
17.5364,1283.4391
17.5474,1283.3371
17.5584,1245.4028
17.5694,1257.8375
17.5804,1205.2785
17.5914,1284.5753
17.6024,1264.459
17.6134,1208.0954
17.6244,1245.0975
17.6354,1295.2478
17.6464,1292.2649
17.6574,1257.4513
17.6684,1228.409
17.6794,1231.1536
17.6904,1258.3347
17.7014,1242.1042
17.7124,1241.1017
17.7234,1247.1358
17.7344,1249.557
17.7454,1223.3097
17.7564,1231.186
17.7674,1261.9243
17.7784,1289.2754
17.7894,1317.826
17.8004,1318.5595
17.8114,1292.4247
17.8224,1299.9101
17.8334,1296.8347
17.8444,1251.549
17.8554,1274.2834
17.8664,1228.9535
17.8774,1224.4604
17.8884,1238.1445
17.8994,1230.6421
17.9104,1229.0369
17.9214,1240.6667
17.9324,1278.2322
17.9434,1254.2899
17.9544,1312.279
17.9654,1312.5033
17.9764,1234.4688
17.9874,1266.2716
17.9984,1216.751
18.0094,1224.5999
18.0204,1254.2095
18.0314,1217.3627
18.0424,1239.6786
18.0534,1243.9292
18.0644,1236.3884
18.0754,1282.8084
18.0864,1280.9365
18.0974,1310.9431
18.1084,1258.2093
18.1194,1228.6902
18.1304,1285.4131
18.1414,1231.7756
18.1524,1253.7434
18.1634,1274.7414
18.1744,1239.9242
18.1854,1283.1978
18.1964,1213.902
18.2074,1275.1191
18.2184,1184.1355
18.2294,1271.0216
18.2404,1273.4853
18.2514,1292.1238
18.2624,1242.0015
18.2734,1259.3608
18.2844,1221.9028
18.2954,1270.1396
18.3064,1253.0994
18.3174,1275.342
18.3284,1228.5292
18.3394,1286.477
18.3504,1301.845
18.3614,1249.3931
18.3724,1196.7533
18.3834,1227.2539
18.3944,1286.0989
18.4054,1282.4599
18.4164,1219.8232
18.4274,1276.9282
18.4384,1270.9591
18.4494,1232.4778
18.4604,1218.9426
18.4714,1242.221
18.4824,1214.2318
18.4934,1286.3884
18.5044,1269.7314
18.5154,1238.6519
18.5264,1231.377
18.5374,1238.3325
18.5484,1274.0442
18.5594,1274.2912
18.5704,1289.7058
18.5814,1238.6636
18.5924,1248.5661
18.6034,1262.5623
18.6144,1232.6151
18.6254,1229.6676
18.6364,1212.7409
18.6474,1218.0797
18.6584,1250.5478
18.6694,1228.7785
18.6804,1203.5606
18.6914,1265.2175
18.7024,1249.5273
18.7134,1277.4694
18.7244,1301.3455
18.7354,1305.2676
18.7464,1266.6192
18.7574,1235.0158
18.7684,1220.316
18.7794,1251.6521
18.7904,1256.6818
18.8014,1210.8524
18.8124,1207.5694
18.8234,1221.0708
18.8344,1215.7581
18.8454,1218.9912
18.8564,1236.2282
18.8674,1223.9075
18.8784,1242.0237
18.8894,1265.2174
18.9004,1235.7742
18.9114,1242.7759
18.9224,1249.5703
18.9334,1222.0894
18.9444,1224.7168
18.9554,1250.0168
18.9664,1250.8284
18.9774,1232.2212
18.9884,1229
18.9994,1229.8712
19.0104,1206.1459
19.0214,1260.3296
19.0324,1244.2984
19.0434,1265.0089
19.0544,1197.0514
19.0654,1195.7798
19.0764,1181.6416
19.0874,1181.9695
19.0984,1287.0539
19.1094,1260.171
19.1204,1279.8593
19.1314,1258.4484
19.1424,1280.2653
19.1534,1223.7068
19.1644,1176.5002
19.1754,1235.118
19.1864,1227.3276
19.1974,1275.1514
19.2084,1254.2772
19.2194,1230.4149
19.2304,1220.5692
19.2414,1180.3185
19.2524,1162.9244
19.2634,1188.3382
19.2744,1186.0679
19.2854,1210.9478
19.2964,1214.6502
19.3074,1263.4187
19.3184,1204.1382
19.3294,1209.1996
19.3404,1213.7566
19.3514,1247.4762
19.3624,1310.0883
19.3734,1244.7109
19.3844,1247.0138
19.3954,1265.2921
19.4064,1279.5692
19.4174,1251.5732
19.4284,1227.7826
19.4394,1215.708
19.4504,1223.4975
19.4614,1222.6225
19.4724,1217.4172
19.4834,1206.7199
19.4944,1239.8786
19.5054,1248.3511
19.5164,1237.8632
19.5274,1229.597
19.5384,1246.0575
19.5494,1215.0845
19.5604,1178.0628
19.5714,1211.5017
19.5824,1263.1809
19.5934,1222.6025
19.6044,1207.5296
19.6154,1230.9164
19.6264,1216.8465
19.6374,1199.9115
19.6484,1176.7236
19.6594,1196.4761
19.6704,1226.6933
19.6814,1201.6046
19.6924,1206.5935
19.7034,1252.5488
19.7144,1217.7313
19.7254,1232.2617
19.7364,1224.6017
19.7474,1237.0375
19.7584,1215.3519
19.7694,1214.7051
19.7804,1206.3544
19.7914,1217.123
19.8024,1229.6844
19.8134,1221.8505
19.8244,1232.4814
19.8354,1207.0087
19.8464,1210.6288
19.8574,1247.0257
19.8684,1267.475
19.8794,1235.8209
19.8904,1222.1991
19.9014,1200.7816
19.9124,1214.0443
19.9234,1159.9743
19.9344,1178.7302
19.9454,1224.6265
19.9564,1211.0707
19.9674,1240.4898
19.9784,1190.8499
19.9894,1265.2362
20.0004,1240.2787
20.0114,1271.8503
20.0224,1197.2977
20.0334,1284.1324
20.0444,1179.3107
20.0554,1188.534
20.0664,1217.0634
20.0774,1216.7128
20.0884,1203.2002
20.0994,1221.4866
20.1104,1181.5629
20.1214,1196.2402
20.1324,1270.6062
20.1434,1278.3312
20.1544,1228.0295
20.1654,1213.4276
20.1764,1179.1801
20.1874,1229.7876
20.1984,1237.4218
20.2094,1242.1249
20.2204,1241.4605
20.2314,1218.6196
20.2424,1250.7762
20.2534,1214.0934
20.2644,1223.5178
20.2754,1237.7284
20.2864,1195.2051
20.2974,1225.0738
20.3084,1253.6869
20.3194,1276.1543
20.3304,1232.9511
20.3414,1186.0866
20.3524,1206.5531
20.3634,1202.5811
20.3744,1207.4454
20.3854,1219.8172
20.3964,1223.789
20.4074,1200.9999
20.4184,1186.9135
20.4294,1234.9029
20.4404,1234.5734
20.4514,1234.2589
20.4624,1249.4924
20.4734,1201.2999
20.4844,1233.1339
20.4954,1192.1825
20.5064,1196.0529
20.5174,1258.6451
20.5284,1253.2477
20.5394,1233.3451
20.5504,1229.0212
20.5614,1279.7052
20.5724,1259.695
20.5834,1226.1534
20.5944,1213.5457
20.6054,1268.5775
20.6164,1258.9993
20.6274,1228.9557
20.6384,1249.2921
20.6494,1244.9881
20.6604,1244.8171
20.6714,1221.1199
20.6824,1262.3655
20.6934,1233.9231
20.7044,1212.2369
20.7154,1200.5368
20.7264,1305.319
20.7374,1284.0224
20.7484,1197.8822
20.7594,1245.6698
20.7704,1258
20.7814,1204.5347
20.7924,1267.72
20.8034,1189.3075
20.8144,1205.8757
20.8254,1250.9293
20.8364,1198.6483
20.8474,1280.1202
20.8584,1263.2389
20.8694,1227.4158
20.8804,1186.1085
20.8914,1230.3217
20.9024,1245.9632
20.9134,1228.7541
20.9244,1206.3676
20.9354,1306.9731
20.9464,1196.4289
20.9574,1245.882
20.9684,1241.6474
20.9794,1218.1881
20.9904,1289.0425
21.0014,1219.4082
21.0124,1254.7249
21.0234,1188.1947
21.0344,1201.9465
21.0454,1238.416
21.0564,1246.1696
21.0674,1243.1799
21.0784,1238.6231
21.0894,1266.6339
21.1004,1197.285
21.1114,1276.8367
21.1224,1247.8893
21.1334,1238.3914
21.1444,1247.6218
21.1554,1233.4898
21.1664,1270.0207
21.1774,1258.3468
21.1884,1207.9043
21.1994,1241.3176
21.2104,1224.8651
21.2214,1184.1062
21.2324,1193.8487
21.2434,1221.8643
21.2544,1243.4515
21.2654,1276.7748
21.2764,1269.5074
21.2874,1248.463
21.2984,1288.8033
21.3094,1317.9839
21.3204,1264.2921
21.3314,1294.0758
21.3424,1323.8054
21.3534,1330.9941
21.3644,1305.8804
21.3754,1269.7964
21.3864,1253.2315
21.3974,1253.8545
21.4084,1267.6957
21.4194,1231.1325
21.4304,1200.3501
21.4414,1239.7878
21.4524,1273.5694
21.4634,1242.7855
21.4744,1208.9031
21.4854,1244.8321
21.4964,1245.5171
21.5074,1224.5703
21.5184,1198.053
21.5294,1194.9813
21.5404,1197.2896
21.5514,1170.9822
21.5624,1208.7755
21.5734,1174.4364
21.5844,1173.711
21.5954,1219.1378
21.6064,1187.8705
21.6174,1211.0444
21.6284,1214.3387
21.6394,1239.2735
21.6504,1224.1666
21.6614,1244.5232
21.6724,1225.8362
21.6834,1255.9382
21.6944,1232.76
21.7054,1241.5271
21.7164,1195.8317
21.7274,1208.4681
21.7384,1231.4283
21.7494,1258.4868
21.7604,1216.9689
21.7714,1278.9235
21.7824,1195.6679
21.7934,1214.8555
21.8044,1255.8214
21.8154,1223.1062
21.8264,1229.4499
21.8374,1244.9725
21.8484,1264.3804
21.8594,1223.2795
21.8704,1282.5251
21.8814,1272.0618
21.8924,1227.8758
21.9034,1273.0168
21.9144,1291.7654
21.9254,1270.3119
21.9364,1302.1561
21.9474,1231.4956
21.9584,1234.1775
21.9694,1242.0217
21.9804,1271.7979
21.9914,1272.0718
22.0024,1275.32
22.0134,1274.1947
22.0244,1271.2167
22.0354,1261.0139
22.0464,1259.7637
22.0574,1182.4238
22.0684,1202.0278
22.0794,1261.006
22.0904,1254.7269
22.1014,1202.7454
22.1124,1214.9513
22.1234,1194.9074
22.1344,1197.4211
22.1454,1227.5632
22.1564,1206.3286
22.1674,1242.8771
22.1784,1206.3625
22.1894,1181.9275
22.2004,1211.6986
22.2114,1203.1416
22.2224,1233.9859
22.2334,1262.0305
22.2444,1243.1061
22.2554,1214.8131
22.2664,1215.4327
22.2774,1216.9911
22.2884,1249.8739
22.2994,1225.4736
22.3104,1220.5268
22.3214,1262.6618
22.3324,1236.4679
22.3434,1250.6757
22.3544,1261.3608
22.3654,1259.3225
22.3764,1220.46
22.3874,1196.3432
22.3984,1224.1034
22.4094,1213.4689
22.4204,1223.505
22.4314,1220.292
22.4424,1202.789
22.4534,1252.7938
22.4644,1252.9424
22.4754,1221.8347
22.4864,1214.7675
22.4974,1218.119
22.5084,1216.6239
22.5194,1219.2173
22.5304,1221.6332
22.5414,1207.0796
22.5524,1252.7898
22.5634,1166.4087
22.5744,1191.5577
22.5854,1220.83
22.5964,1232.0133
22.6074,1257.3718
22.6184,1201.4433
22.6294,1221.0355
22.6404,1234.2744
22.6514,1174.0834
22.6624,1215.3492
22.6734,1257.0326
22.6844,1192.7461
22.6954,1216.9931
22.7064,1210.6506
22.7174,1258.2841
22.7284,1231.9844
22.7394,1255.5958
22.7504,1227.439
22.7614,1210.2776
22.7724,1283.9969
22.7834,1243.0925
22.7944,1246.6385
22.8054,1211.4871
22.8164,1318.6848
22.8274,1301.7728
22.8384,1277.4245
22.8494,1225.3069
22.8604,1265.3707
22.8714,1273.5222
22.8824,1292.8622
22.8934,1271.3334
22.9044,1296.5665
22.9154,1303.1915
22.9264,1271.9913
22.9374,1307.3864
22.9484,1293.8653
22.9594,1302.2469
22.9704,1325.3008
22.9814,1335.9127
22.9924,1354.3651
23.0034,1304.0973
23.0144,1333.8913
23.0254,1368.8521
23.0364,1307.6963
23.0474,1352.9953
23.0584,1404.1318
23.0694,1397.5692
23.0804,1392.2652
23.0914,1400.818
23.1024,1406.2568
23.1134,1418.4699
23.1244,1382.4719
23.1354,1387.242
23.1464,1412.0689
23.1574,1454.1703
23.1684,1440.9333
23.1794,1399.4582
23.1904,1448.3135
23.2014,1451.752
23.2124,1407.7974
23.2234,1416.0925
23.2344,1402.2506
23.2454,1410.4682
23.2564,1432.0226
23.2674,1449.7228
23.2784,1426.6842
23.2894,1402.0236
23.3004,1398.677
23.3114,1393.4857
23.3224,1407.8378
23.3334,1375.0234
23.3444,1401.1172
23.3554,1432.5074
23.3664,1443.2552
23.3774,1409.9005
23.3884,1363.3351
23.3994,1364.8142
23.4104,1344.8028
23.4214,1395.8537
23.4324,1413.1224
23.4434,1345.3842
23.4544,1393.133
23.4654,1354.9025
23.4764,1434.3651
23.4874,1386.7559
23.4984,1338.5795
23.5094,1376.7947
23.5204,1365.3121
23.5314,1377.0915
23.5424,1355.2625
23.5534,1445.1704
23.5644,1388.7373
23.5754,1340.7393
23.5864,1370.8934
23.5974,1392.7968
23.6084,1479.7164
23.6194,1374.9027
23.6304,1399.2624
23.6414,1364.5084
23.6524,1392.4451
23.6634,1439.8998
23.6744,1452.5548
23.6854,1378.5381
23.6964,1422.0085
23.7074,1357.734
23.7184,1458.4924
23.7294,1401.8437
23.7404,1400.3255
23.7514,1403.5134
23.7624,1422.373
23.7734,1380.6716
23.7844,1388.6042
23.7954,1384.3717
23.8064,1404.09
23.8174,1424.0748
23.8284,1427.991
23.8394,1411.3059
23.8504,1429.0817
23.8614,1432.0117
23.8724,1449.1936
23.8834,1495.7116
23.8944,1449.7921
23.9054,1434.1718
23.9164,1418.2417
23.9274,1487.3275
23.9384,1519.2558
23.9494,1552.8693
23.9604,1554.1783
23.9714,1485.8984
23.9824,1424.0486
23.9934,1469.5491
24.0044,1505.0372
24.0154,1478.3314
24.0264,1478.5826
24.0374,1510.5352
24.0484,1548.5639
24.0594,1554.1505
24.0704,1630.6195
24.0814,1661.5701
24.0924,1678.8321
24.1034,1768.1272
24.1144,1810.1731
24.1254,1870.2835
24.1364,1966.2225
24.1474,2132.9152
24.1584,2302.2689
24.1694,2422.6867
24.1804,2660.0645
24.1914,2926.4345
24.2024,3295.6962
24.2134,3574.7048
24.2244,4115.4552
24.2354,4673.3105
24.2464,5334.8919
24.2574,5936.7128
24.2684,6639.8866
24.2794,7357.8579
24.2904,8123.4054
24.3014,9026.8194
24.3124,9722.4727
24.3234,10280.9134
24.3344,10139.7792
24.3454,9086.8729
24.3564,7910.5254
24.3674,6674.1127
24.3784,5659.6908
24.3894,5045.3609
24.4004,4127.0173
24.4114,3141.6504
24.4224,2418.8987
24.4334,2010.7843
24.4444,1866.7262
24.4554,1729.4125
24.4664,1751.4558
24.4774,1685.5268
24.4884,1660.031
24.4994,1665.746
24.5104,1592.7833
24.5214,1618.7935
24.5324,1619.2521
24.5434,1702.381
24.5544,1571.394
24.5654,1628.396
24.5764,1559.9449
24.5874,1538.2034
24.5984,1501.2323
24.6094,1451.9096
24.6204,1477.0634
24.6314,1480.3726
24.6424,1463.2934
24.6534,1441.8465
24.6644,1419.7772
24.6754,1408.121
24.6864,1420.907
24.6974,1396.4306
24.7084,1377.7428
24.7194,1366.5016
24.7304,1396.5497
24.7414,1404.8909
24.7524,1398.3463
24.7634,1342.3766
24.7744,1357.5238
24.7854,1349.2916
24.7964,1282.4289
24.8074,1338.4565
24.8184,1380.3732
24.8294,1363.2693
24.8404,1351.3074
24.8514,1390.3512
24.8624,1368.7676
24.8734,1341.4231
24.8844,1343.4599
24.8954,1325.9294
24.9064,1361.4145
24.9174,1383.3187
24.9284,1354.4008
24.9394,1298.4247
24.9504,1297.1239
24.9614,1327.1801
24.9724,1347.1834
24.9834,1328.3893
24.9944,1304.0338
25.0054,1295
25.0164,1324.7199
25.0274,1329.2261
25.0384,1307.8583
25.0494,1312.3629
25.0604,1337.0198
25.0714,1347
25.0824,1367.7125
25.0934,1326.2868
25.1044,1301.3073
25.1154,1310.1652
25.1264,1277.4172
25.1374,1299.48
25.1484,1269.9703
25.1594,1289.6924
25.1704,1304.0659
25.1814,1304.2212
25.1924,1353.0455
25.2034,1332.2594
25.2144,1315.8436
25.2254,1347.9451
25.2364,1302.9064
25.2474,1345.8557
25.2584,1259.8718
25.2694,1330.9551
25.2804,1262.9554
25.2914,1314.3139
25.3024,1206.7542
25.3134,1306.2246
25.3244,1345.9721
25.3354,1323.2782
25.3464,1340.2995
25.3574,1329.2949
25.3684,1285.5406
25.3794,1313.9995
25.3904,1182.1352
25.4014,1194.3276
25.4124,1249.397
25.4234,1311.0658
25.4344,1292.6312
25.4454,1287
25.4564,1286.0535
25.4674,1268.4284
25.4784,1217.1422
25.4894,1346.2837
25.5004,1234.4363
25.5114,1276.5426
25.5224,1246.4381
25.5334,1258.9903
25.5444,1285.5812
25.5554,1302.1132
25.5664,1311.7166
25.5774,1257.4954
25.5884,1237.7845
25.5994,1305.7542
25.6104,1293.901
25.6214,1289.5815
25.6324,1339.1226
25.6434,1277.4749
25.6544,1289.2966
25.6654,1318.8654
25.6764,1325.4069
25.6874,1359.7982
25.6984,1435.1769
25.7094,1366.7614
25.7204,1377.8974
25.7314,1319.5399
25.7424,1318.9159
25.7534,1270.7174
25.7644,1271.9248
25.7754,1324.7609
25.7864,1297.0905
25.7974,1268.9103
25.8084,1269.6374
25.8194,1299.0835
25.8304,1291.9843
25.8414,1324.071
25.8524,1337.5018
25.8634,1292.3371
25.8744,1298.4206
25.8854,1286.2495
25.8964,1268.3983
25.9074,1275.41
25.9184,1270.7841
25.9294,1272.9165
25.9404,1239.016
25.9514,1274.5225
25.9624,1281.5942
25.9734,1275.9646
25.9844,1305.6884
25.9954,1302.169
26.0064,1295
26.0174,1262.9202
26.0284,1271.7553
26.0394,1245.3391
26.0504,1289.9816
26.0614,1269.3735
26.0724,1240.7389
26.0834,1276.1182
26.0944,1257.4399
26.1054,1214.3066
26.1164,1290.8209
26.1274,1293.9557
26.1384,1268.9498
26.1494,1221.1207
26.1604,1296.9035
26.1714,1298.3805
26.1824,1244.9595
26.1934,1240.8191
26.2044,1211.5014
26.2154,1181.9104
26.2264,1190.4106
26.2374,1178.5368
26.2484,1248.8828
26.2594,1266.7326
26.2704,1237.1326
26.2814,1176.425
26.2924,1228.6895
26.3034,1166.6875
26.3144,1216.821
26.3254,1216.365
26.3364,1266.454
26.3474,1202.855
26.3584,1315.0458
26.3694,1225.3719
26.3804,1279.9479
26.3914,1278.2377
26.4024,1206.8374
26.4134,1141.2058
26.4244,1215.0118
26.4354,1224.4602
26.4464,1223.7301
26.4574,1236.1132
26.4684,1248.4114
26.4794,1218.0216
26.4904,1200.758
26.5014,1184.596
26.5124,1212.7774
26.5234,1227.817
26.5344,1205.4528
26.5454,1222.3256
26.5564,1244.8062
26.5674,1214.8848
26.5784,1200.8713
26.5894,1229.7444
26.6004,1218.1339
26.6114,1191.4535
26.6224,1219.6666
26.6334,1204.3657
26.6444,1198.5773
26.6554,1216.2773
26.6664,1207.4866
26.6774,1206.1594
26.6884,1196.9428
26.6994,1205.0947
26.7104,1236.7172
26.7214,1257.9707
26.7324,1262.9216
26.7434,1231.6627
26.7544,1218.5634
26.7654,1225.0709
26.7764,1215.3661
26.7874,1218.9175
26.7984,1198.4526
26.8094,1244.5452
26.8204,1234.0375
26.8314,1222.5193
26.8424,1236.0959
26.8534,1229.824
26.8644,1262.602
26.8754,1256.8229
26.8864,1230.6386
26.8974,1238.6196
26.9084,1220.9124
26.9194,1237.6678
26.9304,1262.6608
26.9414,1253.0933
26.9524,1219.2103
26.9634,1195.3716
26.9744,1244.19
26.9854,1212.9191
26.9964,1197.7728
27.0074,1201.0954
27.0184,1198.6745
27.0294,1221.6225
27.0404,1207.169
27.0514,1184.0304
27.0624,1181.8805
27.0734,1217.713
27.0844,1222
27.0954,1257.7789
27.1064,1273.0861
27.1174,1236.3204
27.1284,1195.8287
27.1394,1227.83
27.1504,1312.2034
27.1614,1177.2207
27.1724,1201.8312
27.1834,1153.598
27.1944,1192.1772
27.2054,1230.339
27.2164,1168.6835
27.2274,1199.1298
27.2384,1200.614
27.2494,1193.9419
27.2604,1174.5266
27.2714,1182.9811
27.2824,1152.0868
27.2934,1209.1092
27.3044,1224.1507
27.3154,1265.5928
27.3264,1231.2401
27.3374,1175.6244
27.3484,1184.2052
27.3594,1225.8496
27.3704,1227.4272
27.3814,1222.237
27.3924,1214.0264
27.4034,1196.6776
27.4144,1222.3569
27.4254,1206.8406
27.4364,1197.5027
27.4474,1226.7068
27.4584,1218.2569
27.4694,1256.9409
27.4804,1234.5668
27.4914,1235.3983
27.5024,1245.7444
27.5134,1220.8562
27.5244,1204.7893
27.5354,1199.0045
27.5464,1142.8482
27.5574,1179.2834
27.5684,1190.9334
27.5794,1171.9568
27.5904,1178.5295
27.6014,1156.2742
27.6124,1129.0393
27.6234,1141.2361
27.6344,1205.849
27.6454,1195.6761
27.6564,1187.2746
27.6674,1210.4257
27.6784,1193.4675
27.6894,1163.755
27.7004,1154.7144
27.7114,1179.3826
27.7224,1180.876
27.7334,1177.1514
27.7444,1217.5548
27.7554,1225.2477
27.7664,1231.3432
27.7774,1236.6411
27.7884,1194.4953
27.7994,1233.0269
27.8104,1216.1694
27.8214,1181.7846
27.8324,1212.7863
27.8434,1206.4168
27.8544,1156.367
27.8654,1223.1115
27.8764,1194.6453
27.8874,1228.3395
27.8984,1171.569
27.9094,1140.288
27.9204,1138.6785
27.9314,1171.3581
27.9424,1200.3231
27.9534,1171.5839
27.9644,1300.2602
27.9754,1239.5405
27.9864,1291.2569
27.9974,1229.455
28.0084,1243.6889
28.0194,1287.7435
28.0304,1322.713
28.0414,1251.8915
28.0524,1350.6464
28.0634,1394.9579
28.0744,1374.7172
28.0854,1353.9653
28.0964,1511.7903
28.1074,1348.2284
28.1184,1412.1814
28.1294,1403.7211
28.1404,1268.9311
28.1514,1356.7253
28.1624,1281.6446
28.1734,1291.2201
28.1844,1261.1813
28.1954,1246.6628
28.2064,1263.8711
28.2174,1251.9235
28.2284,1297.616
28.2394,1267.8236
28.2504,1198.3586
28.2614,1239.2862
28.2724,1269.1624
28.2834,1306.9794
28.2944,1324.3994
28.3054,1362.2281
28.3164,1344.9571
28.3274,1313.4757
28.3384,1291.1078
28.3494,1311.4513
28.3604,1310.6323
28.3714,1283.6239
28.3824,1252.3898
28.3934,1298.0961
28.4044,1267.6412
28.4154,1264.5986
28.4264,1237.0463
28.4374,1230.4925
28.4484,1193.2564
28.4594,1149.7815
28.4704,1154.7736
28.4814,1192.593
28.4924,1222.4402
28.5034,1217.0882
28.5144,1163.8759
28.5254,1145.061
28.5364,1155.4406
28.5474,1160.3009
28.5584,1196.6483
28.5694,1176.0743
28.5804,1172.3321
28.5914,1237.2844
28.6024,1200.2641
28.6134,1174.5665
28.6244,1204.4018
28.6354,1208.3421
28.6464,1163.0219
28.6574,1157.5684
28.6684,1167.3501
28.6794,1189.9942
28.6904,1202.7984
28.7014,1241.7308
28.7124,1212.8242
28.7234,1199.6824
28.7344,1223.4633
28.7454,1168.5926
28.7564,1220.9222
28.7674,1227.0727
28.7784,1225.3938
28.7894,1219.5182
28.8004,1247.6108
28.8114,1195.5631
28.8224,1204.3305
28.8334,1176.2024
28.8444,1232.018
28.8554,1290.5027
28.8664,1219.921
28.8774,1209.1829
28.8884,1266.0927
28.8994,1320.4565
28.9104,1267.2741
28.9214,1306.1398
28.9324,1278.8996
28.9434,1261.3008
28.9544,1293.8217
28.9654,1266.3788
28.9764,1320.7123
28.9874,1306.4091
28.9984,1318.6937
29.0094,1312.3363
29.0204,1316.1548
29.0314,1293.4996
29.0424,1326.0887
29.0534,1357.1619
29.0644,1282.9401
29.0754,1285.9763
29.0864,1263.5468
29.0974,1286.9861
29.1084,1262.6666
29.1194,1261.2008
29.1304,1290.4047
29.1414,1222.9205
29.1524,1249.1367
29.1634,1241.2093
29.1744,1225.2404
29.1854,1217.4079
29.1964,1191.205
29.2074,1197.0414
29.2184,1237.6915
29.2294,1263.6614
29.2404,1190.0085
29.2514,1158.9756
29.2624,1201.4524
29.2734,1204.7668
29.2844,1212.7029
29.2954,1238.2092
29.3064,1217.9471
29.3174,1258.6038
29.3284,1265.4626
29.3394,1266.6461
29.3504,1297.9796
29.3614,1330.8417
29.3724,1285.8328
29.3834,1228.7916
29.3944,1265.0917
29.4054,1286.5368
29.4164,1269.4026
29.4274,1247.2142
29.4384,1218.1503
29.4494,1206.4523
29.4604,1208.7999
29.4714,1227.0237
29.4824,1220.8784
29.4934,1193.0786
29.5044,1177.5177
29.5154,1225.5795
29.5264,1224.046
29.5374,1188.8494
29.5484,1154.3258
29.5594,1187.2717
29.5704,1237.3158
29.5814,1238.877
29.5924,1217.0205
29.6034,1200.643
29.6144,1233.603
29.6254,1209.7825
29.6364,1229.5356
29.6474,1170.0271
29.6584,1183.3738
29.6694,1221.5665
29.6804,1162.9239
29.6914,1139.6371
29.7024,1181.1802
29.7134,1222.0218
29.7244,1239.9696
29.7354,1143.1322
29.7464,1157.0252
29.7574,1184.1879
29.7684,1230.3984
29.7794,1209.3401
29.7904,1214.4297
29.8014,1292.1626
29.8124,1175.9311
29.8234,1183.5183
29.8344,1214.3143
29.8454,1227.8722
29.8564,1175.1724
29.8674,1244.2771
29.8784,1195.5943
29.8894,1181.9047
29.9004,1203.7935
29.9114,1199.8082
29.9224,1199.2863
29.9334,1223.3715
29.9444,1189.0237
29.9554,1207.8581
29.9664,1145.1284
29.9774,1156.4416
29.9884,1166.3035
29.9994,1104.2184
30.0104,1130.0144
30.0214,1161.8912
30.0324,1210.4335
30.0434,1189.5135
30.0544,1200.8402
30.0654,1136.5874
30.0764,1193.5446
30.0874,1171.6548
30.0984,1171.003
30.1094,1185.8594
30.1204,1191.9234
30.1314,1192.5572
30.1424,1171.4743
30.1534,1204.6123
30.1644,1166.6136
30.1754,1163.6411
30.1864,1163
30.1974,1140.3744
30.2084,1141.203
30.2194,1202.8968
30.2304,1208.3186
30.2414,1177.4451
30.2524,1148.4539
30.2634,1197.8647
30.2744,1245.4086
30.2854,1226.7638
30.2964,1182.7653
30.3074,1162.0256
30.3184,1161.4066
30.3294,1222.1864
30.3404,1257.899
30.3514,1247.6667
30.3624,1234.8288
30.3734,1200.1149
30.3844,1195.0714
30.3954,1218.3276
30.4064,1266.0209
30.4174,1283.9655
30.4284,1230.9554
30.4394,1287.3516
30.4504,1272.71
30.4614,1277.602
30.4724,1304.3614
30.4834,1292.8298
30.4944,1323.9132
30.5054,1325.1749
30.5164,1316.3004
30.5274,1315.7522
30.5384,1348.8738
30.5494,1418.8135
30.5604,1413.1164
30.5714,1424.6304
30.5824,1389.1301
30.5934,1439.4694
30.6044,1489.7214
30.6154,1516.5625
30.6264,1459.6015
30.6374,1465.7523
30.6484,1504.3842
30.6594,1541.3895
30.6704,1582.392
30.6814,1506.5109
30.6924,1588.9754
30.7034,1604.4887
30.7144,1663.6311
30.7254,1656.2654
30.7364,1621.4989
30.7474,1683.8764
30.7584,1834.0084
30.7694,1741.1715
30.7804,1840.7603
30.7914,2000.944
30.8024,2028.3886
30.8134,2161.5743
30.8244,2176.9031
30.8354,2274.4676
30.8464,2388.8454
30.8574,2467.8593
30.8684,2664.9116
30.8794,2919.7008
30.8904,3296.3926
30.9014,3698.8496
30.9124,4140.6096
30.9234,4597.7018
30.9344,5211.2343
30.9454,5923.7999
30.9564,6773.5348
30.9674,7962.3361
30.9784,9321.2194
30.9894,11077.036
31.0004,13527.963
31.0114,17295.5676
31.0224,22300.5227
31.0334,28452.4478
31.0444,34748.7912
31.0554,40054.0172
31.0664,43676.3042
31.0774,45253.5602
31.0884,45109.6147
31.0994,43053.027
31.1104,39034.5734
31.1214,33719.9847
31.1324,29010.777
31.1434,25481.1918
31.1544,22358.7166
31.1654,18983.4117
31.1764,15112.9154
31.1874,11053.3336
31.1984,7756.595
31.2094,5409.2733
31.2204,3980.1947
31.2314,3207.3099
31.2424,2781.54
31.2534,2576.1763
31.2644,2365.192
31.2754,2212.8994
31.2864,2077.5479
31.2974,2034.954
31.3084,1999.5099
31.3194,1982.0178
31.3304,1919.8579
31.3414,1891.9263
31.3524,1843.7504
31.3634,1822.118
31.3744,1782.7809
31.3854,1752.2035
31.3964,1748.4464
31.4074,1735.761
31.4184,1690.6192
31.4294,1682.3206
31.4404,1582.0466
31.4514,1536.3067
31.4624,1523.2335
31.4734,1501.5781
31.4844,1450.1723
31.4954,1434.997
31.5064,1422.1543
31.5174,1418.2832
31.5284,1345.7317
31.5394,1322.6381
31.5504,1324.5811
31.5614,1300.4954
31.5724,1348.5927
31.5834,1298.0027
31.5944,1323.2779
31.6054,1236.0232
31.6164,1309.5225
31.6274,1215.8304
31.6384,1302.4316
31.6494,1299.38
31.6604,1194.6179
31.6714,1174.8536
31.6824,1203.9678
31.6934,1243.8699
31.7044,1173.4715
31.7154,1179.9203
31.7264,1183.1374
31.7374,1219.9349
31.7484,1179.9895
31.7594,1147.7967
31.7704,1193.7731
31.7814,1233.0058
31.7924,1223.4912
31.8034,1231.356
31.8144,1228.8141
31.8254,1218.6973
31.8364,1249.2149
31.8474,1255.4514
31.8584,1288.8449
31.8694,1326.6862
31.8804,1295.5678
31.8914,1307.8283
31.9024,1358.3622
31.9134,1330.5662
31.9244,1340.6421
31.9354,1423.2783
31.9464,1425.9734
31.9574,1428.651
31.9684,1429.0426
31.9794,1421.8615
31.9904,1431.4576
32.0014,1405.2094
32.0124,1392.6504
32.0234,1417.2088
32.0344,1427.8571
32.0454,1409.661
32.0564,1375.045
32.0674,1306.5674
32.0784,1327.6166
32.0894,1331.0491
32.1004,1331.7066
32.1114,1323.7255
32.1224,1282.9511
32.1334,1261.4533
32.1444,1234.1679
32.1554,1230.7101
32.1664,1208.4014
32.1774,1168.699
32.1884,1154.7428
32.1994,1171.8546
32.2104,1165.0176
32.2214,1207.5383
32.2324,1194.2735
32.2434,1202.8026
32.2544,1153.2183
32.2654,1170.9
32.2764,1122.7635
32.2874,1074.5928
32.2984,1104.2849
32.3094,1111.3097
32.3204,1163.4074
32.3314,1151.05
32.3424,1127.1754
32.3534,1187.9876
32.3644,1160.7347
32.3754,1097.7047
32.3864,1095.1235
32.3974,1168.5442
32.4084,1161.5043
32.4194,1112.0873
32.4304,1168.257
32.4414,1190.3629
32.4524,1197.4189
32.4634,1213.5625
32.4744,1143.5645
32.4854,1226.3623
32.4964,1132.0069
32.5074,1198.3809
32.5184,1138.4785
32.5294,1228.0054
32.5404,1231.0784
32.5514,1284.2616
32.5624,1301.5145
32.5734,1249.1066
32.5844,1325.6833
32.5954,1299.1749
32.6064,1271.9248
32.6174,1269.3372
32.6284,1253.5969
32.6394,1269.2331
32.6504,1284.4732
32.6614,1317.3961
32.6724,1277.2329
32.6834,1240.0017
32.6944,1187.6529
32.7054,1193.248
32.7164,1224.4056
32.7274,1200.1155
32.7384,1128.2451
32.7494,1171.9903
32.7604,1191.3229
32.7714,1167.3657
32.7824,1158.3594
32.7934,1147.7913
32.8044,1130.6773
32.8154,1180.5576
32.8264,1203.9156
32.8374,1204.9997
32.8484,1166.5301
32.8594,1184.8742
32.8704,1178.2682
32.8814,1140.3225
32.8924,1175.0846
32.9034,1211.7962
32.9144,1164.9994
32.9254,1183.26
32.9364,1191.0438
32.9474,1143.7375
32.9584,1135.755
32.9694,1155.6965
32.9804,1188.0413
32.9914,1166.8051
33.0024,1207.5006
33.0134,1238.6802
33.0244,1215.2886
33.0354,1209.118
33.0464,1192.962
33.0574,1192.2665
33.0684,1215.5606
33.0794,1220.3588
33.0904,1214.7679
33.1014,1206.4601
33.1124,1221.2184
33.1234,1269.8685
33.1344,1294.6564
33.1454,1257.7057
33.1564,1341.0873
33.1674,1395.4248
33.1784,1397.5713
33.1894,1423.1595
33.2004,1488.4207
33.2114,1505.7463
33.2224,1574.4808
33.2334,1641.7732
33.2444,1717.2605
33.2554,1716.3912
33.2664,1824.9638
33.2774,1756.1273
33.2884,1797.9581
33.2994,1769.221
33.3104,1780.9608
33.3214,1710.5719
33.3324,1637.0631
33.3434,1681.1261
33.3544,1614.1186
33.3654,1596.8436
33.3764,1557.6404
33.3874,1477.2729
33.3984,1443.2344
33.4094,1425.468
33.4204,1386.5942
33.4314,1297.2621
33.4424,1273.5608
33.4534,1331.7883
33.4644,1275.1679
33.4754,1223.3235
33.4864,1227.367
33.4974,1182.1679
33.5084,1145.9971
33.5194,1156.6185
33.5304,1153.323
33.5414,1154.9203
33.5524,1149.9096
33.5634,1157.7253
33.5744,1098.9988
33.5854,1133.7126
33.5964,1093.9071
33.6074,1097.4189
33.6184,1096.854
33.6294,1108.1476
33.6404,1127.3811
33.6514,1130.5848
33.6624,1070.7591
33.6734,1023.0014
33.6844,1091.0355
33.6954,1088.2298
33.7064,1051.5217
33.7174,1054.3668
33.7284,1064.8409
33.7394,1078.7639
33.7504,1065.3629
33.7614,1099.313
33.7724,1107.7538
33.7834,1047.0697
33.7944,1030.8053
33.8054,1049.4279
33.8164,1040.6751
33.8274,977.9791
33.8384,962.681
33.8494,1013.7704
33.8604,1036.2741
33.8714,1024.6157
33.8824,1044.5049
33.8934,1065.9913
33.9044,1052.9913
33.9154,1066.4153
33.9264,1092.6474
33.9374,1061.3774
33.9484,1071.7367
33.9594,1098.8703
33.9704,1074.2328
33.9814,1047.0491
33.9924,1022.0352
34.0034,1039.2647
34.0144,1065.0787
34.0254,1068.6785
34.0364,1034.3468
34.0474,1057.7505
34.0584,1073.2094
34.0694,1018.0448
34.0804,1027.0558
34.0914,1004.4776
34.1024,991.2532
34.1134,997.8319
34.1244,1002.3142
34.1354,992.0284
34.1464,1001.7356
34.1574,1020.357
34.1684,1008.4094
34.1794,1049.1409
34.1904,1018.2785
34.2014,1017.002
34.2124,1023.2183
34.2234,982.5455
34.2344,1036.0239
34.2454,1014.8956
34.2564,1006.4867
34.2674,1045.1094
34.2784,1015.9221
34.2894,981.5042
34.3004,995.4888
34.3114,1042.076
34.3224,1017.1916
34.3334,1085.9951
34.3444,1084.518
34.3554,1057.8556
34.3664,1084.2028
34.3774,1044.893
34.3884,1078.5974
34.3994,1079.9986
34.4104,1005.0038
34.4214,1069.0115
34.4324,1020.8129
34.4434,1049.6165
34.4544,1049.242
34.4654,1057.9703
34.4764,1037.4117
34.4874,1072.876
34.4984,1076.818
34.5094,1118.6643
34.5204,1039.0927
34.5314,1007.8203
34.5424,1032.9925
34.5534,1028.7849
34.5644,1066.8934
34.5754,1059.8571
34.5864,994.4022
34.5974,960.9907
34.6084,1020.3853
34.6194,1019.0653
34.6304,1057.2541
34.6414,1024.1974
34.6524,1008.7067
34.6634,1053.8252
34.6744,1049.598
34.6854,1009.9824
34.6964,1035.7053
34.7074,1058.9262
34.7184,1043.2978
34.7294,1023.9468
34.7404,1009.4031
34.7514,989.8406
34.7624,1001.1193
34.7734,1040.4278
34.7844,1052.0177
34.7954,1050.9154
34.8064,1014.86
34.8174,994.8231
34.8284,971.1929
34.8394,960.8281
34.8504,983.0694
34.8614,971.3686
34.8724,996.2525
34.8834,993.7431
34.8944,1043.3354
34.9054,998.9167
34.9164,998.288
34.9274,1000.6036
34.9384,1002.2567
34.9494,1019.7848
34.9604,979.8473
34.9714,987.5587
34.9824,1020.6329
34.9934,1024.5457
35.0044,958.0979
35.0154,958.4751
35.0264,1024.2236
35.0374,995.0902
35.0484,978.177
35.0594,932.9289
35.0704,991.759
35.0814,1032.0621
35.0924,972.1717
35.1034,989.5547
35.1144,962.4069
35.1254,1006.9433
35.1364,1025.6304
35.1474,1020.5988
35.1584,961.6147
35.1694,1005.8302
35.1804,1031.832
35.1914,1031.0728
35.2024,966.5896
35.2134,926.46
35.2244,1032.9752
35.2354,982.9872
35.2464,981.4232
35.2574,959.4111
35.2684,972.4831
35.2794,1018.3892
35.2904,998.9743
35.3014,1049.4044
35.3124,936.8825
35.3234,1020.7775
35.3344,968.9021
35.3454,961.5991
35.3564,1011.4799
35.3674,1004.4528
35.3784,928.1772
35.3894,950.9665
35.4004,944.7602
35.4114,952.4394
35.4224,940.9956
35.4334,959.9354
35.4444,975.5998
35.4554,921.5854
35.4664,942.4719
35.4774,879.9915
35.4884,911.7717
35.4994,914.854
35.5104,973.3583
35.5214,942.7029
35.5324,920.4125
35.5434,922.8584
35.5544,934.5076
35.5654,912.1655
35.5764,864.111
35.5874,909.1573
35.5984,914.2046
35.6094,927.4307
35.6204,916.4827
35.6314,918.3896
35.6424,929.584
35.6534,919.5202
35.6644,928.3506
35.6754,921.8582
35.6864,931.3193
35.6974,932.7815
35.7084,898.3848
35.7194,908.1438
35.7304,928.8294
35.7414,914.2329
35.7524,890.1906
35.7634,906.1103
35.7744,911.5442
35.7854,906.882
35.7964,926.5493
35.8074,967.6404
35.8184,939.4977
35.8294,920.3825
35.8404,877.9171
35.8514,869.9185
35.8624,938.4906
35.8734,966.177
35.8844,925.6742
35.8954,989.7764
35.9064,950.4214
35.9174,940.8477
35.9284,966.8266
35.9394,971.4012
35.9504,973.4351
35.9614,988.008
35.9724,974.2742
35.9834,940.4511
35.9944,930.6956
36.0054,953.5754
36.0164,962.3127
36.0274,988.1368
36.0384,1039.2319
36.0494,951.7674
36.0604,1001.0116
36.0714,927.3535
36.0824,1036.1855
36.0934,992.4255
36.1044,1009.6918
36.1154,1025.9372
36.1264,959.1505
36.1374,976.5663
36.1484,955.7364
36.1594,947.2762
36.1704,933.3807
36.1814,953.9753
36.1924,929.6275
36.2034,951.3535
36.2144,881.5208
36.2254,910.2861
36.2364,900.9305
36.2474,883.0446
36.2584,942.2991
36.2694,956.7075
36.2804,906.2091
36.2914,996.2654
36.3024,972.8034
36.3134,900.221
36.3244,879.4649
36.3354,940.5785
36.3464,977.9665
36.3574,955.745
36.3684,924.102
36.3794,935.0064
36.3904,906.6047
36.4014,954.218
36.4124,921.3117
36.4234,914.1336
36.4344,918.6184
36.4454,953.9743
36.4564,936.2291
36.4674,917.929
36.4784,923.5023
36.4894,947.581
36.5004,934.2626
36.5114,955.7878
36.5224,945.7936
36.5334,934.9354
36.5444,971.1805
36.5554,939.9583
36.5664,908.5001
36.5774,953.3731
36.5884,959.6723
36.5994,935.6106
36.6104,922.1724
36.6214,906.0698
36.6324,895.5412
36.6434,922.8184
36.6544,958.565
36.6654,983.4869
36.6764,972.8209
36.6874,933.9565
36.6984,966.9149
36.7094,944.8354
36.7204,956.2923
36.7314,1000.0061
36.7424,966.0203
36.7534,984.2835
36.7644,967.544
36.7754,1016.617
36.7864,1103.8869
36.7974,1057.0113
36.8084,1041.9337
36.8194,1005.6477
36.8304,1085.629
36.8414,1117.8801
36.8524,1101.1498
36.8634,1136.9295
36.8744,1156.8182
36.8854,1198.3965
36.8964,1287.53
36.9074,1339.6463
36.9184,1360.1864
36.9294,1492.4079
36.9404,1666.6327
36.9514,1854.946
36.9624,1972.6157
36.9734,2173.774
36.9844,2304.8503
36.9954,2516.6236
37.0064,2758.9954
37.0174,2824.1379
37.0284,2858.6105
37.0394,2830.0089
37.0504,2652.5722
37.0614,2473.8049
37.0724,2389.0601
37.0834,2240.1637
37.0944,2150.8122
37.1054,2052.5577
37.1164,1899.2435
37.1274,1752.9937
37.1384,1673.0509
37.1494,1536.5595
37.1604,1379.1013
37.1714,1293.4953
37.1824,1229.228
37.1934,1152.2244
37.2044,1163.0727
37.2154,1079.9734
37.2264,1067.3007
37.2374,1050.4986
37.2484,1047.1385
37.2594,1023.9026
37.2704,1004.0887
37.2814,970.6688
37.2924,980.7299
37.3034,959.6175
37.3144,963
37.3254,956.7344
37.3364,956.1718
37.3474,953.6398
37.3584,923.3143
37.3694,930.233
37.3804,931.1909
37.3914,922.7519
37.4024,911.9309
37.4134,921.0539
37.4244,909.1284
37.4354,926.717
37.4464,913.4525
37.4574,905.31
37.4684,914.3032
37.4794,905.121
37.4904,893.6237
37.5014,894.6186
37.5124,887.0608
37.5234,877.1239
37.5344,883.3265
37.5454,898.6599
37.5564,929.217
37.5674,881.1509
37.5784,906.709
37.5894,905.4156
37.6004,878.1017
37.6114,857.641
37.6224,874.838
37.6334,866.2329
37.6444,821.7736
37.6554,848.5756
37.6664,861.3544
37.6774,917.088
37.6884,865.3992
37.6994,835.8721
37.7104,875.2486
37.7214,868.817
37.7324,912.9743
37.7434,858.1578
37.7544,899.2659
37.7654,905.9616
37.7764,892.2197
37.7874,928.8941
37.7984,885.9102
37.8094,911.8891
37.8204,929.5178
37.8314,934.6539
37.8424,891.4889
37.8534,921.7701
37.8644,882.1846
37.8754,862.6725
37.8864,915.6213
37.8974,865.6644
37.9084,831.0165
37.9194,891.0472
37.9304,893.2169
37.9414,825.039
37.9524,931.2698
37.9634,913.098
37.9744,856.5898
37.9854,904.2243
37.9964,920.564
38.0074,856.1851
38.0184,890.3673
38.0294,888.0155
38.0404,861.1452
38.0514,893.2302
38.0624,909.8045
38.0734,926.932
38.0844,905.8851
38.0954,917.2838
38.1064,884.4527
38.1174,946.4574
38.1284,962.6586
38.1394,931.5898
38.1504,920.0488
38.1614,915.4785
38.1724,881.5955
38.1834,922.6111
38.1944,974.1512
38.2054,935.4255
38.2164,911.9043
38.2274,924.8643
38.2384,909.5844
38.2494,889.6195
38.2604,919.6406
38.2714,986.0406
38.2824,1022.3482
38.2934,981.5765
38.3044,947.8014
38.3154,979.8258
38.3264,988.2619
38.3374,1027.9716
38.3484,1055.2435
38.3594,1084.6
38.3704,1077.8547
38.3814,1090.7378
38.3924,1138.3709
38.4034,1184.3936
38.4144,1266.6201
38.4254,1297.1474
38.4364,1282.8736
38.4474,1366.0539
38.4584,1475.8097
38.4694,1534.0543
38.4804,1609.033
38.4914,1630.6321
38.5024,1728.1273
38.5134,1856.6585
38.5244,1930.1419
38.5354,1986.2058
38.5464,2193.2095
38.5574,2316.3799
38.5684,2428.3331
38.5794,2569.8946
38.5904,2531.3672
38.6014,2450.7351
38.6124,2425.3524
38.6234,2145.9439
38.6344,2015.1957
38.6454,1926.9287
38.6564,1781.5276
38.6674,1794.1419
38.6784,1679.7558
38.6894,1625.1128
38.7004,1520.0549
38.7114,1385.0405
38.7224,1299.1849
38.7334,1230.27
38.7444,1096.1585
38.7554,1061.46
38.7664,1047.5432
38.7774,1026.6193
38.7884,971.9461
38.7994,1067.5237
38.8104,999.1033
38.8214,1012.5279
38.8324,989.1279
38.8434,993.9736
38.8544,1015.8482
38.8654,1021.5332
38.8764,910.2451
38.8874,949.4289
38.8984,969.9344
38.9094,944.59
38.9204,947.4365
38.9314,943.7014
38.9424,971.9199
38.9534,900.3164
38.9644,876.8453
38.9754,908.3956
38.9864,947.1839
38.9974,927.1264
39.0084,871.4869
39.0194,895.5409
39.0304,900.0867
39.0414,872.6197
39.0524,901.4444
39.0634,885.4963
39.0744,866.3278
39.0854,902.1121
39.0964,897.0192
39.1074,884.1444
39.1184,859.8362
39.1294,859.4573
39.1404,859.5972
39.1514,850.6029
39.1624,869.0139
39.1734,873.1533
39.1844,879.4363
39.1954,879.3714
39.2064,844.5014
39.2174,858.4103
39.2284,858.2269
39.2394,841.2744
39.2504,855.4892
39.2614,844.1266
39.2724,834.2833
39.2834,848.0384
39.2944,837.458
39.3054,842.6167
39.3164,833.3709
39.3274,827.8713
39.3384,842.3762
39.3494,850.8771
39.3604,858.9755
39.3714,816.9701
39.3824,805.2233
39.3934,830.7878
39.4044,846.0399
39.4154,877.7023
39.4264,892.3914
39.4374,798.1319
39.4484,813.7399
39.4594,799.8375
39.4704,804.1314
39.4814,797.1287
39.4924,824.5465
39.5034,848.0709
39.5144,836.9138
39.5254,838.6441
39.5364,849.8231
39.5474,807.9633
39.5584,837.7859
39.5694,809.926
39.5804,803.1322
39.5914,809.1603
39.6024,829.6314
39.6134,820.2398
39.6244,790.5755
39.6354,830.7436
39.6464,811.404
39.6574,808.0924
39.6684,800.2713
39.6794,846.9619
39.6904,863.8506
39.7014,816.9675
39.7124,806.7319
39.7234,852.5129
39.7344,800.9559
39.7454,822.2279
39.7564,792.4476
39.7674,829.6107
39.7784,840.9016
39.7894,765.7989
39.8004,838.1801
39.8114,860.2309
39.8224,841.6908
39.8334,847.5045
39.8444,860.5567
39.8554,875.4235
39.8664,832.9395
39.8774,833.5814
39.8884,872.2119
39.8994,875.9145
39.9104,876.5406
39.9214,855.9511
39.9324,887.0443
39.9434,879.8857
39.9544,868.7108
39.9654,904.4247
39.9764,896.3102
39.9874,897.9676
39.9984,890.2904
40.0094,859.1984
40.0204,844.5473
40.0314,851.3096
40.0424,877.2459
40.0534,902.1283
40.0644,865.3424
40.0754,871.3242
40.0864,866.4914
40.0974,856.8107
40.1084,841.3789
40.1194,862.3096
40.1304,833.5308
40.1414,803.6567
40.1524,781.9036
40.1634,797.8439
40.1744,834.9441
40.1854,825.0745
40.1964,830.5785
40.2074,820.8777
40.2184,813.0965
40.2294,807.3981
40.2404,809.3148
40.2514,825.4101
40.2624,838.1874
40.2734,857.126
40.2844,867.6175
40.2954,885.6668
40.3064,841.0408
40.3174,827.7513
40.3284,826.6681
40.3394,860.5077
40.3504,893.2032
40.3614,902.9617
40.3724,893.4621
40.3834,844.0999
40.3944,839.3275
40.4054,791.4667
40.4164,818.0937
40.4274,815.7875
40.4384,856.8022
40.4494,866
40.4604,818.3418
40.4714,844.5332
40.4824,857.8806
40.4934,860.7758
40.5044,839.3951
40.5154,870.7623
40.5264,871.2256
40.5374,831.6428
40.5484,841.3418
40.5594,821.8052
40.5704,834.6353
40.5814,839.9312
40.5924,864.9633
40.6034,818.1948
40.6144,837.6873
40.6254,907.2652
40.6364,861.1924
40.6474,883.8603
40.6584,862.4584
40.6694,824.6957
40.6804,904.3193
40.6914,876.7673
40.7024,925.8065
40.7134,875.3832
40.7244,845.133
40.7354,891.2905
40.7464,936.7873
40.7574,902.9738
40.7684,946.3395
40.7794,923.2075
40.7904,928.8349
40.8014,941.8229
40.8124,913.8276
40.8234,876.4161
40.8344,891.2349
40.8454,898.1548
40.8564,929.0853
40.8674,936.8376
40.8784,989.373
40.8894,938.7704
40.9004,977.9781
40.9114,975.3632
40.9224,1035.4649
40.9334,1078.8684
40.9444,1090.2979
40.9554,1066.4304
40.9664,1053.66
40.9774,1072.5723
40.9884,1018.6688
40.9994,941.467
41.0104,938.328
41.0214,957.248
41.0324,966.6671
41.0434,969.5567
41.0544,982.5443
41.0654,960.2829
41.0764,957.8768
41.0874,978.413
41.0984,937.4503
41.1094,916.2528
41.1204,956.0136
41.1314,919.3239
41.1424,900.6187
41.1534,903.6194
41.1644,913.9417
41.1754,865.1538
41.1864,871.7481
41.1974,900.4435
41.2084,858.9824
41.2194,889.0359
41.2304,885.3892
41.2414,888.0267
41.2524,885.6401
41.2634,906.9451
41.2744,837.4212
41.2854,879.4666
41.2964,902.1406
41.3074,848.7734
41.3184,847.9559
41.3294,875.661
41.3404,864.3135
41.3514,855.0737
41.3624,842.8342
41.3734,868.8783
41.3844,858.8642
41.3954,843.5633
41.4064,914.6455
41.4174,874.1413
41.4284,859.7408
41.4394,849.5506
41.4504,894.9472
41.4614,913.4819
41.4724,887.491
41.4834,842.2652
41.4944,846.7185
41.5054,803.8036
41.5164,846.2478
41.5274,853.1346
41.5384,837.5004
41.5494,892.0467
41.5604,828.8888
41.5714,884.1681
41.5824,872.3346
41.5934,843.4574
41.6044,860.9655
41.6154,852.0176
41.6264,835.6911
41.6374,825.9592
41.6484,893.1444
41.6594,878.4739
41.6704,871.7969
41.6814,865.401
41.6924,843.6342
41.7034,844.7583
41.7144,871.5754
41.7254,888.2712
41.7364,855.696
41.7474,840.36
41.7584,861.1235
41.7694,881.7829
41.7804,893.1768
41.7914,869.2201
41.8024,861.712
41.8134,844.0702
41.8244,815.7596
41.8354,839.917
41.8464,819.3896
41.8574,860.7761
41.8684,870.3311
41.8794,872.9414
41.8904,865.0102
41.9014,819.301
41.9124,866.4032
41.9234,905.5713
41.9344,895.0314
41.9454,858.4215
41.9564,860.2668
41.9674,885.9302
41.9784,906.341
41.9894,887.6328
42.0004,872.7229
42.0114,906.9472
42.0224,921.6145
42.0334,887.7411
42.0444,860.7905
42.0554,855.7335
42.0664,875.0115
42.0774,862.9762
42.0884,851.6701
42.0994,860.1889
42.1104,862.6106
42.1214,870.4839
42.1324,919.3146
42.1434,886.5217
42.1544,880.6456
42.1654,903.1476
42.1764,862.125
42.1874,917.4853
42.1984,888.6255
42.2094,876.8053
42.2204,843.4781
42.2314,866.7062
42.2424,905.0032
42.2534,858.8767
42.2644,844.7994
42.2754,864.2184
42.2864,888.3925
42.2974,852.1433
42.3084,864.4868
42.3194,857.646
42.3304,832.5465
42.3414,864.3483
42.3524,860.2094
42.3634,914.7339
42.3744,884.3302
42.3854,858.1046
42.3964,911.0428
42.4074,913.9469
42.4184,908.6204
42.4294,827.6591
42.4404,877.1269
42.4514,880.8173
42.4624,907.3125
42.4734,946.7843
42.4844,902.0267
42.4954,915.6272
42.5064,901.4691
42.5174,917.7473
42.5284,938.4992
42.5394,1012.3388
42.5504,958.8634
42.5614,977.726
42.5724,1020.7891
42.5834,1037.1873
42.5944,1096.2935
42.6054,1088.7963
42.6164,1121.6359
42.6274,1275.7978
42.6384,1359.2768
42.6494,1492.9928
42.6604,1623.0666
42.6714,1848.8898
42.6824,2170.8515
42.6934,2521.4906
42.7044,2903.3751
42.7154,3413.0847
42.7264,3951.3723
42.7374,4551.6407
42.7484,5070.7464
42.7594,5305.5932
42.7704,4921.5836
42.7814,4166.4396
42.7924,3460.1177
42.8034,2932.0507
42.8144,2785.5017
42.8254,2885.4254
42.8364,3010.9332
42.8474,3137.1924
42.8584,2978.823
42.8694,2592.7438
42.8804,2151.456
42.8914,1744.0971
42.9024,1474.6933
42.9134,1295.4326
42.9244,1171.9723
42.9354,1083.911
42.9464,1029.4761
42.9574,1029.1044
42.9684,1030.466
42.9794,1012.3548
42.9904,1017.8816
43.0014,1004.6724
43.0124,994.5949
43.0234,1015.4456
43.0344,1031.2715
43.0454,985.1972
43.0564,971.0069
43.0674,978.8762
43.0784,1015.1576
43.0894,1067.5844
43.1004,1061.3804
43.1114,1035.0441
43.1224,1097.6888
43.1334,1071.7873
43.1444,1143.9052
43.1554,1064.0042
43.1664,1143.4609
43.1774,1144.583
43.1884,1192.4571
43.1994,1189.7964
43.2104,1303.5515
43.2214,1325.1692
43.2324,1333.5871
43.2434,1326.3146
43.2544,1394.1076
43.2654,1447.2334
43.2764,1591.647
43.2874,1604.8167
43.2984,1688.0623
43.3094,1738.9241
43.3204,1853.8114
43.3314,1951.882
43.3424,1953.636
43.3534,2009.6093
43.3644,2088.9473
43.3754,1938.6711
43.3864,1850.3652
43.3974,1702.4865
43.4084,1649.6484
43.4194,1508.0667
43.4304,1484.286
43.4414,1483.0063
43.4524,1516.9969
43.4634,1414.7958
43.4744,1333.78
43.4854,1271.4896
43.4964,1135.1545
43.5074,1077.7509
43.5184,1021.6882
43.5294,975.9355
43.5404,997.1346
43.5514,939.7434
43.5624,927.6073
43.5734,921.9289
43.5844,962.2974
43.5954,887.5306
43.6064,859.6919
43.6174,883.9786
43.6284,914.1167
43.6394,924.5338
43.6504,918.2317
43.6614,906.4687
43.6724,892.6408
43.6834,872.91
43.6944,853.0889
43.7054,883.4307
43.7164,858.5837
43.7274,858.5815
43.7384,857.7425
43.7494,826.7915
43.7604,839.689
43.7714,845.7403
43.7824,841.2517
43.7934,838.3982
43.8044,840.8752
43.8154,826.4059
43.8264,825.0178
43.8374,831.3756
43.8484,844.3703
43.8594,825.3921
43.8704,809.0162
43.8814,816.0827
43.8924,827.5443
43.9034,858.9255
43.9144,860.3436
43.9254,814.8049
43.9364,837.2206
43.9474,830.8228
43.9584,878.6908
43.9694,835.793
43.9804,850.1512
43.9914,813.6014
44.0024,835.1591
44.0134,879.1262
44.0244,816.9994
44.0354,845.2816
44.0464,901.0436
44.0574,797.6127
44.0684,882.488
44.0794,827.1008
44.0904,861.6331
44.1014,824.628
44.1124,921.6202
44.1234,845.9316
44.1344,825.7
44.1454,876.3327
44.1564,818.1692
44.1674,867.6493
44.1784,864.6643
44.1894,803.6905
44.2004,841.0101
44.2114,809.296
44.2224,816.7641
44.2334,829.2644
44.2444,821.3748
44.2554,846.5308
44.2664,824.1786
44.2774,839.4029
44.2884,813.5399
44.2994,817.6723
44.3104,785.8808
44.3214,822.8436
44.3324,819.1299
44.3434,821.219
44.3544,789.0104
44.3654,809.7203
44.3764,858.9873
44.3874,822.0621
44.3984,807.364
44.4094,752.9339
44.4204,820.7947
44.4314,798.8979
44.4424,804.0908
44.4534,801.4457
44.4644,820.2756
44.4754,812.5028
44.4864,832.2609
44.4974,792.1175
44.5084,763.0951
44.5194,779.2034
44.5304,798.3097
44.5414,857.0298
44.5524,832.5892
44.5634,784.5529
44.5744,799.7295
44.5854,813.6286
44.5964,820.5735
44.6074,781.5789
44.6184,778.8999
44.6294,781.2289
44.6404,770.6515
44.6514,768.1268
44.6624,749.8907
44.6734,773.0692
44.6844,833.1066
44.6954,811.9355
44.7064,799.2431
44.7174,803.2772
44.7284,792.6602
44.7394,810.2323
44.7504,810.3981
44.7614,811.8821
44.7724,824.6987
44.7834,801.7431
44.7944,808.424
44.8054,822.648
44.8164,809.9158
44.8274,823.7258
44.8384,824.3141
44.8494,801.6104
44.8604,790.3952
44.8714,816.2913
44.8824,807.3671
44.8934,856.8903
44.9044,827.5355
44.9154,808.8819
44.9264,821.3005
44.9374,822.293
44.9484,826.3289
44.9594,829.6342
44.9704,925.2697
44.9814,810.6274
44.9924,893.985
45.0034,815.8391
45.0144,824.9721
45.0254,814.5781
45.0364,843.8876
45.0474,843.0472
45.0584,833.113
45.0694,838.0089
45.0804,846.7742
45.0914,829.6931
45.1024,819.5145
45.1134,858.0502
45.1244,857.4389
45.1354,831.8326
45.1464,809.8735
45.1574,858.3184
45.1684,832.1026
45.1794,821.4604
45.1904,847.2799
45.2014,812.3363
45.2124,816.9453
45.2234,800.4808
45.2344,800.0389
45.2454,803.4659
45.2564,794.646
45.2674,839.3331
45.2784,816.9381
45.2894,817.0383
45.3004,810.3319
45.3114,825.6846
45.3224,824.8868
45.3334,757.1926
45.3444,746.8571
45.3554,769.2962
45.3664,808.6381
45.3774,866.6375
45.3884,864.4698
45.3994,793.3028
45.4104,812.5949
45.4214,841.3823
45.4324,835.011
45.4434,840.5956
45.4544,834.073
45.4654,842.461
45.4764,835.7346
45.4874,839.4681
45.4984,813.5812
45.5094,818.9916
45.5204,845.4163
45.5314,819.4147
45.5424,803.5295
45.5534,813.7523
45.5644,805.3774
45.5754,787.469
45.5864,792.1014
45.5974,777.9073
45.6084,780.2878
45.6194,815.0062
45.6304,799.864
45.6414,800.5636
45.6524,765.9833
45.6634,773.9059
45.6744,781.199
45.6854,769.4178
45.6964,804.5869
45.7074,790.3035
45.7184,822.2959
45.7294,831.6155
45.7404,800.4717
45.7514,796.3412
45.7624,801.8766
45.7734,824.2657
45.7844,794.804
45.7954,814.427
45.8064,773.1795
45.8174,811.5333
45.8284,784.4899
45.8394,771.1091
45.8504,810.1881
45.8614,792.0795
45.8724,771.0353
45.8834,779.9263
45.8944,791.151
45.9054,786.3893
45.9164,789.7896
45.9274,815.9117
45.9384,806.3082
45.9494,767.6133
45.9604,805.8661
45.9714,795.6731
45.9824,868.8429
45.9934,772.1767
46.0044,864.7317
46.0154,877.6211
46.0264,843.1484
46.0374,895.8523
46.0484,875.5111
46.0594,914.3593
46.0704,958.6416
46.0814,967.9908
46.0924,1055.4994
46.1034,1115.381
46.1144,1185.0564
46.1254,1286.5991
46.1364,1355.3936
46.1474,1536.1979
46.1584,1714.4131
46.1694,1897.1346
46.1804,2158.9901
46.1914,2380.3929
46.2024,2512.9458
46.2134,2711.9815
46.2244,2665.5673
46.2354,2439.724
46.2464,2184.2633
46.2574,1899.4625
46.2684,1732.7343
46.2794,1699.8218
46.2904,1697.2466
46.3014,1700.4775
46.3124,1674.747
46.3234,1674.3154
46.3344,1581.7849
46.3454,1401.21
46.3564,1236.4367
46.3674,1118.8045
46.3784,1003.3649
46.3894,910.445
46.4004,863.8656
46.4114,840.4925
46.4224,843.2558
46.4334,852.4749
46.4444,822.9819
46.4554,769.9672
46.4664,798.1378
46.4774,782.8725
46.4884,765.4614
46.4994,777.2094
46.5104,810.056
46.5214,818.0382
46.5324,774.0365
46.5434,768.9038
46.5544,779.6411
46.5654,767.5485
46.5764,732.9206
46.5874,759.7379
46.5984,785.5134
46.6094,788.2783
46.6204,777.7236
46.6314,761.3126
46.6424,778.2411
46.6534,768.0402
46.6644,786.4958
46.6754,793.7955
46.6864,803.6933
46.6974,755.976
46.7084,786.6179
46.7194,777.2624
46.7304,771.4292
46.7414,760.5692
46.7524,767.8152
46.7634,806.5401
46.7744,775.662
46.7854,763.7344
46.7964,776.0296
46.8074,775.114
46.8184,767.3579
46.8294,736.0381
46.8404,738.9194
46.8514,804.4813
46.8624,819.7784
46.8734,770.0167
46.8844,771.6383
46.8954,794.2805
46.9064,825.4471
46.9174,846.4538
46.9284,784.4235
46.9394,810.1954
46.9504,786.2132
46.9614,818.628
46.9724,790.9851
46.9834,831.8604
46.9944,828.8731
47.0054,822.0907
47.0164,848.1765
47.0274,864.6702
47.0384,915.3096
47.0494,859.8824
47.0604,913.9916
47.0714,985.5582
47.0824,1063.2523
47.0934,1087.0654
47.1044,1166.3312
47.1154,1279.4354
47.1264,1406.4998
47.1374,1532.299
47.1484,1644.1158
47.1594,1841.2298
47.1704,1931.9862
47.1814,2145.7217
47.1924,2153.7169
47.2034,2164.6145
47.2144,2127.8051
47.2254,1947.9388
47.2364,1715.209
47.2474,1574.7648
47.2584,1461.42
47.2694,1445.6944
47.2804,1485.1601
47.2914,1533.2216
47.3024,1533.6924
47.3134,1484.0901
47.3244,1399.0832
47.3354,1269.9862
47.3464,1118.7619
47.3574,1010.3181
47.3684,974.0225
47.3794,938.3123
47.3904,917.5944
47.4014,897.9791
47.4124,886.857
47.4234,870.3243
47.4344,865.1485
47.4454,906.0398
47.4564,910.6326
47.4674,913.2066
47.4784,897.9108
47.4894,881.9498
47.5004,855.3287
47.5114,927.7157
47.5224,947.6135
47.5334,1002.8265
47.5444,1008.9699
47.5554,990.2034
47.5664,999.448
47.5774,1008.6235
47.5884,983.0838
47.5994,994.3866
47.6104,1069.419
47.6214,1141.8235
47.6324,1171.8905
47.6434,1179.3855
47.6544,1220.9118
47.6654,1309.8561
47.6764,1403.0852
47.6874,1543.4553
47.6984,1499.564
47.7094,1585.3793
47.7204,1597.7051
47.7314,1619.4594
47.7424,1649.6315
47.7534,1506.9992
47.7644,1391.7909
47.7754,1373.3033
47.7864,1303.8609
47.7974,1251.2453
47.8084,1309.1445
47.8194,1232.1974
47.8304,1198.6349
47.8414,1211.4766
47.8524,1161.1499
47.8634,1085.452
47.8744,1049.2141
47.8854,1007.005
47.8964,908.9123
47.9074,929.1588
47.9184,868.7032
47.9294,834.1633
47.9404,832.7612
47.9514,809.266
47.9624,852.0237
47.9734,810.8376
47.9844,796.8068
47.9954,799.0255
48.0064,798.0675
48.0174,815.115
48.0284,802.8596
48.0394,785.7523
48.0504,805.9648
48.0614,800.6623
48.0724,782.8127
48.0834,802.9819
48.0944,763.5707
48.1054,754.8534
48.1164,762.1684
48.1274,774.5673
48.1384,764.849
48.1494,764.2124
48.1604,766.0904
48.1714,762.6647
48.1824,769.1078
48.1934,793.7495
48.2044,795.3936
48.2154,788.711
48.2264,781.7869
48.2374,778.653
48.2484,777.1503
48.2594,749.6457
48.2704,756.5298
48.2814,791.2893
48.2924,766.6593
48.3034,757.364
48.3144,739.4186
48.3254,726.8349
48.3364,726.3943
48.3474,746.2392
48.3584,773.2244
48.3694,750.0262
48.3804,722.6886
48.3914,728.4062
48.4024,728.6489
48.4134,710.0382
48.4244,692.7536
48.4354,767.4914
48.4464,767.221
48.4574,733.2544
48.4684,760.3538
48.4794,773.0561
48.4904,722.119
48.5014,725.2086
48.5124,744.9618
48.5234,718.747
48.5344,746.2889
48.5454,730.6458
48.5564,732.4863
48.5674,678.4273
48.5784,730.1539
48.5894,752.7484
48.6004,709.5183
48.6114,717.5458
48.6224,714.116
48.6334,712.0334
48.6444,745.8498
48.6554,748.7874
48.6664,722.0403
48.6774,724.9412
48.6884,752.0156
48.6994,732.0837
48.7104,748.8214
48.7214,732.6735
48.7324,727.0279
48.7434,708.1062
48.7544,715.5171
48.7654,757.1992
48.7764,715.2907
48.7874,739.5056
48.7984,759.9762
48.8094,732.6221
48.8204,703.2293
48.8314,710.1599
48.8424,675.1551
48.8534,700.3127
48.8644,701.6211
48.8754,717.0591
48.8864,721.2864
48.8974,710.5745
48.9084,723.7622
48.9194,705.0515
48.9304,737.5879
48.9414,743.7172
48.9524,765.1286
48.9634,744.352
48.9744,747.5502
48.9854,745.9743
48.9964,743.389
49.0074,748.1798
49.0184,716.4991
49.0294,686.8515
49.0404,705.9605
49.0514,726.2979
49.0624,713.7471
49.0734,711.5488
49.0844,754.1313
49.0954,739.5479
49.1064,732.9918
49.1174,739.4095
49.1284,733.2103
49.1394,729.7607
49.1504,708.439
49.1614,751.5679
49.1724,737.7413
49.1834,716.359
49.1944,708.1365
49.2054,731.611
49.2164,750.7306
49.2274,759.0581
49.2384,748.1768
49.2494,713.1364
49.2604,745.8201
49.2714,744.0263
49.2824,678.0314
49.2934,680.2264
49.3044,728.1184
49.3154,746.472
49.3264,749.5153
49.3374,743.8406
49.3484,709.9294
49.3594,716.89
49.3704,749.2377
49.3814,741.2565
49.3924,714.7215
49.4034,753.8706
49.4144,723.482
49.4254,722.2095
49.4364,700.106
49.4474,680.0362
49.4584,740.4533
49.4694,747.9174
49.4804,772.1723
49.4914,753.2761
49.5024,753.9086
49.5134,729.8356
49.5244,848.4218
49.5354,767.7427
49.5464,774.031
49.5574,783.0472
49.5684,787.4016
49.5794,834.1855
49.5904,793.5254
49.6014,842.1154
49.6124,892.4809
49.6234,958.4474
49.6344,969.6155
49.6454,1035.5285
49.6564,1101.3289
49.6674,1172.5203
49.6784,1313.4338
49.6894,1415.1173
49.7004,1555.4944
49.7114,1617.3651
49.7224,1807.6289
49.7334,2072.3026
49.7444,2310.283
49.7554,2597.5339
49.7664,2843.8307
49.7774,2959.1487
49.7884,2717.9645
49.7994,2444.3166
49.8104,2122.8092
49.8214,1754.041
49.8324,1612.5745
49.8434,1540.5936
49.8544,1557.3642
49.8654,1616.2857
49.8764,1664.5076
49.8874,1775.087
49.8984,1689.9431
49.9094,1575.6864
49.9204,1374.9111
49.9314,1146.0964
49.9424,1011.0028
49.9534,892.8008
49.9644,834.0027
49.9754,804.8956
49.9864,808.3478
49.9974,797.1087
50.0084,766.3229
50.0194,750.8287
50.0304,756.7834
50.0414,751.634
50.0524,741.5507
50.0634,718.2681
50.0744,737.5723
50.0854,739.1659
50.0964,713.112
50.1074,729.0603
50.1184,742.6426
50.1294,760.6816
50.1404,749.3179
50.1514,718.6163
50.1624,717.301
50.1734,723.8162
50.1844,704.2264
50.1954,709.1152
50.2064,731.7819
50.2174,710.1315
50.2284,685.6901
50.2394,714.4448
50.2504,757.1832
50.2614,726.684
50.2724,704.7801
50.2834,710.2695
50.2944,756.4798
50.3054,709.6504
50.3164,729.37
50.3274,741.0089
50.3384,718.9015
50.3494,704.291
50.3604,712.1299
50.3714,722.2528
50.3824,745.5017
50.3934,660.5627
50.4044,666.5837
50.4154,664.0767
50.4264,667.9469
50.4374,667.001
50.4484,631.1471
50.4594,644.4249
50.4704,662.3949
50.4814,672.3254
50.4924,661.6611
50.5034,703.8005
50.5144,707.6204
50.5254,642.2126
50.5364,672.1096
50.5474,673.2439
50.5584,675.5369
50.5694,683.1025
50.5804,699.8536
50.5914,672.266
50.6024,712.0969
50.6134,676.4143
50.6244,715.7834
50.6354,723.4274
50.6464,679.0234
50.6574,677.0567
50.6684,726.8289
50.6794,680.8446
50.6904,674.7183
50.7014,666.3557
50.7124,663.6213
50.7234,696.4513
50.7344,686.0368
50.7454,671.8819
50.7564,673.953
50.7674,675.0832
50.7784,643.7197
50.7894,640.3923
50.8004,640.1907
50.8114,659.0122
50.8224,682.2787
50.8334,684.3885
50.8444,685.9241
50.8554,668.9409
50.8664,669.1756
50.8774,690.7387
50.8884,702.4852
50.8994,690.2103
50.9104,669.9217
50.9214,668.0975
50.9324,663.4054
50.9434,685.6071
50.9544,673.0909
50.9654,681.3397
50.9764,701.791
50.9874,680.5927
50.9984,682.1432
51.0094,708.5066
51.0204,686.4775
51.0314,690.2077
51.0424,710.4505
51.0534,696.4423
51.0644,666.3119
51.0754,674.7976
51.0864,701.5533
51.0974,717.8379
51.1084,723.9951
51.1194,717.3893
51.1304,684.8389
51.1414,701.9265
51.1524,724.1609
51.1634,687.4883
51.1744,684.5802
51.1854,677.6518
51.1964,667.5289
51.2074,702.9541
51.2184,694.1813
51.2294,684.0442
51.2404,678.5186
51.2514,678
51.2624,688.1294
51.2734,656.3399
51.2844,668.1815
51.2954,668.0423
51.3064,643.7496
51.3174,689.1685
51.3284,682.0432
51.3394,690.8829
51.3504,674.0192
51.3614,674.1502
51.3724,648.4376
51.3834,659.2893
51.3944,679.428
51.4054,661.548
51.4164,696.3314
51.4274,646.7871
51.4384,696
51.4494,691.3271
51.4604,659.7158
51.4714,655.8386
51.4824,643.8333
51.4934,651.7693
51.5044,696.3989
51.5154,712.761
51.5264,702.0575
51.5374,687.928
51.5484,661.8362
51.5594,659.2961
51.5704,680.7451
51.5814,721.3604
51.5924,763.4208
51.6034,760.7925
51.6144,750.1458
51.6254,719.6152
51.6364,700.13
51.6474,719.8614
51.6584,719.37
51.6694,706
51.6804,701.345
51.6914,700.8035
51.7024,686.2503
51.7134,658.6462
51.7244,665.5034
51.7354,682.1203
51.7464,682.6087
51.7574,681.911
51.7684,693.0916
51.7794,684.4604
51.7904,702.0866
51.8014,688.7372
51.8124,685.3143
51.8234,683.9507
51.8344,681.2798
51.8454,668.1148
51.8564,665.1068
51.8674,669.4188
51.8784,670.6549
51.8894,685.4289
51.9004,667.6506
51.9114,685.3013
51.9224,684.5671
51.9334,683.0473
51.9444,709.5357
51.9554,658.8233
51.9664,692.1359
51.9774,676.6928
51.9884,683.694
51.9994,679.346
52.0104,678.0266
52.0214,654.394
52.0324,675.9054
52.0434,686.3806
52.0544,649.127
52.0654,640.8181
52.0764,656.7774
52.0874,703.8195
52.0984,635.9073
52.1094,621.2655
52.1204,619.2409
52.1314,660.9168
52.1424,661.4793
52.1534,664.6657
52.1644,671.501
52.1754,708.6994
52.1864,649.9887
52.1974,663.4151
52.2084,654.2212
52.2194,707.4695
52.2304,681.9408
52.2414,658.5608
52.2524,694.9992
52.2634,658.8033
52.2744,653.1739
52.2854,639.0867
52.2964,654.3903
52.3074,647.708
52.3184,660.1405
52.3294,698.8756
52.3404,639.2387
52.3514,622.4991
52.3624,679.3007
52.3734,666.7583
52.3844,682.7454
52.3954,687.2634
52.4064,663.2342
52.4174,639.3995
52.4284,661.1837
52.4394,644.068
52.4504,654.2483
52.4614,664.6414
52.4724,685.9969
52.4834,658.0233
52.4944,650.9038
52.5054,700.6636
52.5164,692.2881
52.5274,679.2867
52.5384,660.1316
52.5494,678.6931
52.5604,672.4848
52.5714,684.2037
52.5824,683.5646
52.5934,666.5291
52.6044,661.2873
52.6154,665.2286
52.6264,680.982
52.6374,659.1711
52.6484,676.2506
52.6594,693.1818
52.6704,674.165
52.6814,660
52.6924,655.3318
52.7034,666.9294
52.7144,659.8124
52.7254,667.5559
52.7364,697.6535
52.7474,695.7177
52.7584,707.3655
52.7694,677.0643
52.7804,671.8297
52.7914,650.7586
52.8024,659.5137
52.8134,655.0755
52.8244,669.9811
52.8354,649.0763
52.8464,637.1446
52.8574,655.1703
52.8684,679.8837
52.8794,681.1789
52.8904,696.0184
52.9014,682.4423
52.9124,705.0514
52.9234,654.963
52.9344,710.5966
52.9454,704.3557
52.9564,707.7641
52.9674,703.3923
52.9784,736.3686
52.9894,720.8857
53.0004,770.4961
53.0114,766.7482
53.0224,709.0924
53.0334,728.9914
53.0444,736.56
53.0554,702.8011
53.0664,712.1756
53.0774,709.2045
53.0884,720.534
53.0994,733.655
53.1104,706.399
53.1214,753.906
53.1324,735.7026
53.1434,803.0226
53.1544,803.6159
53.1654,795.3603
53.1764,845.4989
53.1874,883.636
53.1984,868.7746
53.2094,896.9762
53.2204,896.3637
53.2314,1040.4686
53.2424,1005.5249
53.2534,1095.0044
53.2644,1147.9974
53.2754,1188.8461
53.2864,1242.5796
53.2974,1312.585
53.3084,1402.6882
53.3194,1395.0435
53.3304,1422.0313
53.3414,1439.8069
53.3524,1404.8177
53.3634,1402.5307
53.3744,1350.6989
53.3854,1279.865
53.3964,1245.367
53.4074,1226.0943
53.4184,1252.0209
53.4294,1270.5683
53.4404,1168.44
53.4514,1139.4358
53.4624,1137.3212
53.4734,1105.6951
53.4844,1073.1666
53.4954,1036.6638
53.5064,1007.7393
53.5174,919.3049
53.5284,890.3383
53.5394,894.908
53.5504,861.8191
53.5614,864.5309
53.5724,852.4585
53.5834,861.0278
53.5944,856.8846
53.6054,858.5539
53.6164,886.9205
53.6274,935.0035
53.6384,946.4255
53.6494,946.1123
53.6604,1016.6306
53.6714,1080.2786
53.6824,1153.7392
53.6934,1250.8061
53.7044,1274.3096
53.7154,1359.3227
53.7264,1478.1233
53.7374,1649.5818
53.7484,1793.0413
53.7594,1808.0942
53.7704,1823.1428
53.7814,1734.1778
53.7924,1544.954
53.8034,1397.229
53.8144,1250.3709
53.8254,1208.938
53.8364,1202.2182
53.8474,1201
53.8584,1190.32
53.8694,1153.8128
53.8804,1245.9966
53.8914,1215.9287
53.9024,1157.499
53.9134,1044.9233
53.9244,1004.1413
53.9354,897.5359
53.9464,879.641
53.9574,741.9722
53.9684,762.2225
53.9794,772.6107
53.9904,718.734
54.0014,747.4211
54.0124,689.3766
54.0234,719.8168
54.0344,689.4186
54.0454,713.0672
54.0564,741.7807
54.0674,631.829
54.0784,743.9477
54.0894,670.5749
54.1004,633.8503
54.1114,663.1466
54.1224,666.9406
54.1334,635.943
54.1444,728.6745
54.1554,678.3068
54.1664,683.6452
54.1774,696.8385
54.1884,673.7611
54.1994,678.2154
54.2104,680.8514
54.2214,675.0443
54.2324,684.6338
54.2434,685.4481
54.2544,665.3762
54.2654,660.3949
54.2764,634.329
54.2874,652.2214
54.2984,662.1099
54.3094,652.5331
54.3204,664
54.3314,667.8506
54.3424,658.332
54.3534,646.2334
54.3644,656.8143
54.3754,639.1782
54.3864,662.1727
54.3974,651.505
54.4084,626.7444
54.4194,623.6194
54.4304,643.2586
54.4414,675.4189
54.4524,692.043
54.4634,670.1862
54.4744,640.6673
54.4854,649
54.4964,631.364
54.5074,623.1073
54.5184,629
54.5294,648.9954
54.5404,662.8328
54.5514,648.2948
54.5624,646.9062
54.5734,662.5478
54.5844,646.8537
54.5954,644.3207
54.6064,625.0213
54.6174,659.5434
54.6284,667.3159
54.6394,650.9753
54.6504,674.5534
54.6614,676.6557
54.6724,636.446
54.6834,644.5578
54.6944,635.3754
54.7054,636.9116
54.7164,642.121
54.7274,654.888
54.7384,649.9517
54.7494,657.8054
54.7604,633.4589
54.7714,637.2587
54.7824,638.146
54.7934,630.2035
54.8044,651.8429
54.8154,650.5457
54.8264,645.4842
54.8374,674.2943
54.8484,642.6737
54.8594,692.6416
54.8704,637.9085
54.8814,651.3984
54.8924,660.7921
54.9034,700.5677
54.9144,643.9674
54.9254,622.9229
54.9364,688.1138
54.9474,654.3863
54.9584,640.4688
54.9694,665.1048
54.9804,626.5138
54.9914,679.812
55.0024,653.307
55.0134,623.3631
55.0244,648.7561
55.0354,648.3378
55.0464,695.4879
55.0574,663.0324
55.0684,655.2231
55.0794,644.6019
55.0904,652.0372
55.1014,636.2104
55.1124,643.459
55.1234,663.6499
55.1344,656.7419
55.1454,672.2394
55.1564,694.5025
55.1674,652.4316
55.1784,659.3011
55.1894,659.8569
55.2004,630.4841
55.2114,657.3333
55.2224,656.7651
55.2334,653.0519
55.2444,656.6214
55.2554,686.5574
55.2664,691.2647
55.2774,704.5575
55.2884,695.5481
55.2994,697.9284
55.3104,705.2285
55.3214,696.175
55.3324,731.952
55.3434,737.9757
55.3544,733.505
55.3654,748.7725
55.3764,738.8719
55.3874,756.95
55.3984,758.5771
55.4094,739.5809
55.4204,741.6049
55.4314,736.9418
55.4424,736.6462
55.4534,728.3026
55.4644,740.7933
55.4754,765.0532
55.4864,823.5307
55.4974,841.9005
55.5084,779.458
55.5194,765.2273
55.5304,836.1498
55.5414,862.1917
55.5524,891.7177
55.5634,883.6536
55.5744,911.4694
55.5854,968.323
55.5964,975.3647
55.6074,991.6197
55.6184,1005.6692
55.6294,1066.4293
55.6404,1139.5139
55.6514,1185.1744
55.6624,1144.2753
55.6734,1275.1784
55.6844,1225.0184
55.6954,1333.6325
55.7064,1327.9526
55.7174,1237.8232
55.7284,1211.6016
55.7394,1193.3804
55.7504,1185.4508
55.7614,1150.8758
55.7724,1115.3935
55.7834,1152.8991
55.7944,1174.6801
55.8054,1137.1118
55.8164,1085.6825
55.8274,1156.4635
55.8384,1086.0838
55.8494,1056.2097
55.8604,979.8725
55.8714,1004.7604
55.8824,934.4212
55.8934,912.6122
55.9044,874.1227
55.9154,893.4017
55.9264,843.2806
55.9374,835.0356
55.9484,848.9221
55.9594,828.6913
55.9704,832.1015
55.9814,803.0262
55.9924,779.1502
56.0034,781.9728
56.0144,725.1506
56.0254,734.871
56.0364,717.6621
56.0474,715.6985
56.0584,729.6136
56.0694,682.1148
56.0804,677.9124
56.0914,714.2164
56.1024,724.9205
56.1134,730.517
56.1244,715.5255
56.1354,721.6079
56.1464,718.4494
56.1574,670.1177
56.1684,672.1465
56.1794,687.1569
56.1904,676.0991
56.2014,691.4837
56.2124,674.3488
56.2234,651.5741
56.2344,657.2923
56.2454,655.8955
56.2564,684.5923
56.2674,694.5569
56.2784,666.8325
56.2894,653.6369
56.3004,639.7508
56.3114,679.1215
56.3224,705.1263
56.3334,672.4745
56.3444,651.5993
56.3554,673.4064
56.3664,651.4376
56.3774,632.5448
56.3884,635.297
56.3994,627.4099
56.4104,637.1344
56.4214,641.2586
56.4324,685.3472
56.4434,648.9147
56.4544,615.8888
56.4654,645.0535
56.4764,676.4171
56.4874,664.7815
56.4984,659
56.5094,674.6737
56.5204,652.7327
56.5314,657.3158
56.5424,620.6131
56.5534,656.1411
56.5644,670.916
56.5754,583.6844
56.5864,589.8734
56.5974,607.9943
56.6084,630.569
56.6194,633.9066
56.6304,617.46
56.6414,624.3806
56.6524,615.5653
56.6634,678.0802
56.6744,642.2779
56.6854,652.7641
56.6964,662.9263
56.7074,646.8572
56.7184,618.0172
56.7294,619.3541
56.7404,631.209
56.7514,637.6768
56.7624,667.531
56.7734,673.8199
56.7844,657.9988
56.7954,637.587
56.8064,638.1596
56.8174,663.4804
56.8284,621.5223
56.8394,646.9072
56.8504,688.6586
56.8614,620.646
56.8724,616.1606
56.8834,605.4111
56.8944,614.2081
56.9054,632.1064
56.9164,644.8925
56.9274,609.9731
56.9384,595.0997
56.9494,630.652
56.9604,631.5486
56.9714,625.3993
56.9824,634.122
56.9934,650.0858
57.0044,643.4044
57.0154,605.9158
57.0264,634.3364
57.0374,639.3844
57.0484,641.5611
57.0594,659.1683
57.0704,650.2946
57.0814,627.0739
57.0924,627.9084
57.1034,610.6045
57.1144,591.1852
57.1254,587.6638
57.1364,604.6541
57.1474,627.9176
57.1584,639.4911
57.1694,632.7462
57.1804,612.0637
57.1914,624.6494
57.2024,628.1433
57.2134,619.1328
57.2244,617.174
57.2354,593.3684
57.2464,572.1066
57.2574,607.2661
57.2684,587.1444
57.2794,604.7961
57.2904,615.873
57.3014,583.5916
57.3124,584.6187
57.3234,606.9442
57.3344,632.3434
57.3454,638.5644
57.3564,611.7165
57.3674,610.9087
57.3784,580.7941
57.3894,618.3191
57.4004,626.7659
57.4114,630.5409
57.4224,599.8462
57.4334,596.0807
57.4444,614.3969
57.4554,580.1677
57.4664,619.9154
57.4774,613.2899
57.4884,629.4294
57.4994,577.7173
57.5104,610.6956
57.5214,611.3421
57.5324,562.8088
57.5434,665.1121
57.5544,611.1145
57.5654,601.2546
57.5764,630.2776
57.5874,597.4009
57.5984,602.992
57.6094,587.55
57.6204,630.4264
57.6314,646.701
57.6424,639.8443
57.6534,653.3979
57.6644,615.0395
57.6754,627.4808
57.6864,622.4941
57.6974,626.3333
57.7084,622.3575
57.7194,629.5574
57.7304,617.8478
57.7414,638.2369
57.7524,627.792
57.7634,617.9329
57.7744,599.4085
57.7854,601.189
57.7964,624.5391
57.8074,649.8298
57.8184,646.739
57.8294,651.3275
57.8404,640.3913
57.8514,589.6017
57.8624,586.3187
57.8734,600.2311
57.8844,617.083
57.8954,648.3294
57.9064,657.893
57.9174,653.8668
57.9284,624.1077
57.9394,616.8434
57.9504,610.2701
57.9614,620.5634
57.9724,614.4896
57.9834,603.6783
57.9944,617.0349
58.0054,641.4473
58.0164,623.8434
58.0274,624.3956
58.0384,623.7593
58.0494,624.1508
58.0604,645.1338
58.0714,625.7233
58.0824,603.9174
58.0934,614.6256
58.1044,616.0776
58.1154,621.5636
58.1264,630.5905
58.1374,621.3558
58.1484,627.3011
58.1594,596.1046
58.1704,606.261
58.1814,632.1712
58.1924,628.6936
58.2034,598.6162
58.2144,623.884
58.2254,652.2175
58.2364,664.1338
58.2474,624.1853
58.2584,609.4759
58.2694,610.7503
58.2804,615.5753
58.2914,589.1059
58.3024,635.3118
58.3134,625.218
58.3244,619
58.3354,631.36
58.3464,616.4379
58.3574,620.6373
58.3684,609.0869
58.3794,636.6876
58.3904,635.6873
58.4014,626.9203
58.4124,620.5398
58.4234,613.5437
58.4344,591.5037
58.4454,584.3185
58.4564,613.7353
58.4674,648.0308
58.4784,671.6271
58.4894,667.0196
58.5004,644.9665
58.5114,642.1569
58.5224,696.7035
58.5334,687.6833
58.5444,681.4603
58.5554,686.8355
58.5664,657.7537
58.5774,655.3776
58.5884,656.6527
58.5994,646.3999
58.6104,717.1815
58.6214,724.8564
58.6324,720.7269
58.6434,705.6904
58.6544,735.6006
58.6654,800.5924
58.6764,754.9498
58.6874,736.5689
58.6984,710.2507
58.7094,751.8704
58.7204,765.0168
58.7314,764.8022
58.7424,752.6548
58.7534,752.1497
58.7644,780.7972
58.7754,789.3212
58.7864,800.7287
58.7974,870.5564
58.8084,876.2158
58.8194,908.9185
58.8304,946.8076
58.8414,1011.9029
58.8524,1058.7244
58.8634,1173.3752
58.8744,1295.5919
58.8854,1411.9566
58.8964,1646.8841
58.9074,1935.6251
58.9184,2344.5501
58.9294,2849.7398
58.9404,3314.5041
58.9514,3852.0155
58.9624,4381.8694
58.9734,4767.0237
58.9844,5030.0314
58.9954,4862.0419
59.0064,4259.0924
59.0174,3581.0697
59.0284,3025.9946
59.0394,2491.4373
59.0504,2197.0038
59.0614,2128.7676
59.0724,2169.0952
59.0834,2312.1442
59.0944,2533.6443
59.1054,2693.7563
59.1164,2804.8466
59.1274,2809.3507
59.1384,2568.6431
59.1494,2273.1419
59.1604,1841.4931
59.1714,1553.9714
59.1824,1221.3403
59.1934,1063.6432
59.2044,926.9308
59.2154,851.792
59.2264,850.0153
59.2374,850.3363
59.2484,795.9738
59.2594,783.4307
59.2704,785.6062
59.2814,741.9484
59.2924,719.9202
59.3034,716.1888
59.3144,704.9851
59.3254,688.1867
59.3364,755.8016
59.3474,692.2107
59.3584,728.6498
59.3694,744.6904
59.3804,759.8748
59.3914,682.9685
59.4024,674.1072
59.4134,620.6846
59.4244,645.8367
59.4354,688.7876
59.4464,684.5422
59.4574,676.8347
59.4684,666.5092
59.4794,701.4886
59.4904,697.9165
59.5014,705.6343
59.5124,709.7217
59.5234,708
59.5344,707.3451
59.5454,697.3113
59.5564,674.6622
59.5674,716.6138
59.5784,717.7559
59.5894,663.6828
59.6004,688.6885
59.6114,665.9962
59.6224,677.2138
59.6334,663.7518
59.6444,626.5474
59.6554,622.0496
59.6664,656.2449
59.6774,643.795
59.6884,627.7826
59.6994,640.203
59.7104,628.7853
59.7214,659.8198
59.7324,653.3189
59.7434,629.3018
59.7544,589.211
59.7654,620.6724
59.7764,594.2007
59.7874,589.3032
59.7984,595.0277
59.8094,573.587
59.8204,577.3162
59.8314,602.8234
59.8424,615.8897
59.8534,613.1613
59.8644,595.1692
59.8754,604.3269
59.8864,609.6177
59.8974,601.832
59.9084,627.9384
59.9194,607.3652
59.9304,596.9427
59.9414,581.8787
59.9524,543.0301
59.9634,572.7293
59.9744,606.1752
59.9854,585.6289
59.9964,592.7186
60.0074,602.6922
60.0184,611.4544
60.0294,579.1588
60.0404,581.0405
60.0514,576.6203
60.0624,550.3891
60.0734,567.5116
60.0844,543.0906
60.0954,582.2248
60.1064,579.7456
60.1174,642.8425
60.1284,628.2121
60.1394,590.0901
60.1504,597.6324
60.1614,574.9348
60.1724,563.1105
60.1834,592.2225
60.1944,614.925
60.2054,642.5775
60.2164,635.7423
60.2274,623.7432
60.2384,599.2412
60.2494,588.3736
60.2604,551.9274
60.2714,642.8121
60.2824,573.0342
60.2934,608.752
60.3044,587.8795
60.3154,581.1805
60.3264,533.2434
60.3374,540.4999
60.3484,578.2674
60.3594,572.6789
60.3704,608.7711
60.3814,578.0088
60.3924,574.285
60.4034,601.0931
60.4144,580.7043
60.4254,602.1058
60.4364,568.5977
60.4474,562.5165
60.4584,583.0765
60.4694,569.9185
60.4804,579.4547
60.4914,567.9408
60.5024,548.9814
60.5134,564.8815
60.5244,610.0976
60.5354,623.8159
60.5464,606.2395
60.5574,590.3769
60.5684,559.655
60.5794,594.4136
60.5904,575.5917
60.6014,574.2021
60.6124,542.7365
60.6234,558.08
60.6344,566.0724
60.6454,555.1537
60.6564,572.5826
60.6674,585.7505
60.6784,588.9721
60.6894,563.1857
60.7004,575.0628
60.7114,576.4509
60.7224,569.6994
60.7334,568.3723
60.7444,612.4048
60.7554,620.8369
60.7664,606.7985
60.7774,590.4486
60.7884,558.2596
60.7994,571.5439
60.8104,581.179
60.8214,574.1769
60.8324,567.7719
60.8434,558.8573
60.8544,561.6638
60.8654,576.4151
60.8764,576.6941
60.8874,566.5692
60.8984,580.8832
60.9094,598.8015
60.9204,583.0528
60.9314,553.984
60.9424,556.3177
60.9534,587.7231
60.9644,596.2384
60.9754,620.7633
60.9864,596.5542
60.9974,595.9844
61.0084,561.5173
61.0194,581.8056
61.0304,569.6232
61.0414,569.3904
61.0524,577.739
61.0634,594.6993
61.0744,579.3105
61.0854,582.3806
61.0964,598.4539
61.1074,566.8315
61.1184,584.54
61.1294,622.8912
61.1404,563.6739
61.1514,591.0858
61.1624,590.0344
61.1734,542.2355
61.1844,584.904
61.1954,572.6886
61.2064,607.7352
61.2174,628.0969
61.2284,588.0744
61.2394,606.2754
61.2504,604.7265
61.2614,548.3632
61.2724,580.1543
61.2834,571.584
61.2944,569.86
61.3054,625.4354
61.3164,610.6597
61.3274,635.2982
61.3384,581.1276
61.3494,598.8495
61.3604,595.2242
61.3714,599.1347
61.3824,588.2268
61.3934,563.6864
61.4044,577.3558
61.4154,596.9556
61.4264,575.222
61.4374,559.6413
61.4484,553.1602
61.4594,522.6985
61.4704,550.9043
61.4814,562.0177
61.4924,589.662
61.5034,603.5281
61.5144,545.7522
61.5254,566.0319
61.5364,585.5819
61.5474,569.587
61.5584,573.2528
61.5694,570.2486
61.5804,573.8455
61.5914,581.3705
61.6024,578.0144
61.6134,584.5929
61.6244,603.4562
61.6354,582.538
61.6464,569.7985
61.6574,584.7461
61.6684,558.5543
61.6794,580.8708
61.6904,584.3708
61.7014,557.8091
61.7124,590.8281
61.7234,625.535
61.7344,616.6955
61.7454,571.2148
61.7564,562.9304
61.7674,580.541
61.7784,576.6046
61.7894,578.1505
61.8004,570.5648
61.8114,585.1153
61.8224,570.6718
61.8334,578.8488
61.8444,571.5927
61.8554,542.7716
61.8664,564.2383
61.8774,590.1979
61.8884,570.3856
61.8994,583.3513
61.9104,581.4512
61.9214,589.1397
61.9324,585.9409
61.9434,549.0704
61.9544,602.8753
61.9654,572.3978
61.9764,553.6149
61.9874,557.4278
61.9984,607.5138
62.0094,610.1416
62.0204,575.1643
62.0314,564.4158
62.0424,550.4748
62.0534,593.0486
62.0644,577.1586
62.0754,573.8727
62.0864,531.4118
62.0974,557.8347
62.1084,552.5178
62.1194,566.7201
62.1304,595.6811
62.1414,559.8522
62.1524,532.3981
62.1634,518.9374
62.1744,542.1605
62.1854,523.7761
62.1964,553.0395
62.2074,571.8495
62.2184,562.2119
62.2294,527.327
62.2404,576.562
62.2514,587.1843
62.2624,600.5045
62.2734,536.7437
62.2844,565.5811
62.2954,566.4732
62.3064,585.0886
62.3174,582.2524
62.3284,559.857
62.3394,571.8322
62.3504,581.9701
62.3614,569.7714
62.3724,596.6295
62.3834,586.9422
62.3944,586.7022
62.4054,559.2831
62.4164,556.0719
62.4274,549.5081
62.4384,549.1597
62.4494,565.162
62.4604,553
62.4714,571.2629
62.4824,561.5013
62.4934,559.6615
62.5044,590.3892
62.5154,558.2267
62.5264,545.6172
62.5374,568.5371
62.5484,586.2518
62.5594,584.5623
62.5704,572.2152
62.5814,558.6115
62.5924,544.2904
62.6034,543.3364
62.6144,547
62.6254,545.1475
62.6364,551.5576
62.6474,574.6207
62.6584,581.7281
62.6694,566.6665
62.6804,561.3579
62.6914,577.8989
62.7024,637.0627
62.7134,603.1644
62.7244,566.4374
62.7354,563.9617
62.7464,589.8396
62.7574,561.2798
62.7684,534.4541
62.7794,572.6377
62.7904,558.3399
62.8014,580.4959
62.8124,541.5447
62.8234,546.2588
62.8344,548.149
62.8454,588.5767
62.8564,587.995
62.8674,596.7671
62.8784,570.9938
62.8894,563.4375
62.9004,546.3538
62.9114,533.755
62.9224,582.3673
62.9334,585
62.9444,520.7191
62.9554,549.5736
62.9664,547.0044
62.9774,521.3681
62.9884,555.7166
62.9994,584.1588
63.0104,535.3356
63.0214,564.0397
63.0324,594.8435
63.0434,580
63.0544,579.2251
63.0654,569.7078
63.0764,554.7648
63.0874,578.7903
63.0984,561.3586
63.1094,582.5832
63.1204,585.3699
63.1314,557.2684
63.1424,560.4413
63.1534,580.3605
63.1644,561.1537
63.1754,575.3419
63.1864,555.6202
63.1974,548.6185
63.2084,491.4469
63.2194,545.7174
63.2304,578.0851
63.2414,547.6116
63.2524,550.2724
63.2634,556.6343
63.2744,568.4549
63.2854,570.2555
63.2964,563.1417
63.3074,580.7298
63.3184,573.8402
63.3294,559.5904
63.3404,587.4164
63.3514,591.4298
63.3624,602.1742
63.3734,607.7335
63.3844,580.7891
63.3954,563.9914
63.4064,581.3919
63.4174,589.0099
63.4284,606.9575
63.4394,615.1483
63.4504,601.9886
63.4614,578.3478
63.4724,619.8284
63.4834,638.799
63.4944,619.2345
63.5054,623.4072
63.5164,617.1906
63.5274,627.2598
63.5384,639.5507
63.5494,585.7533
63.5604,604.3444
63.5714,618.8819
63.5824,592.7081
63.5934,603.9738
63.6044,604.463
63.6154,578.5651
63.6264,561.168
63.6374,575.2107
63.6484,609.9021
63.6594,613.5899
63.6704,588.4451
63.6814,638.6192
63.6924,592.2692
63.7034,582.1102
63.7144,577.1597
63.7254,559.0676
63.7364,581.7673
63.7474,597.3256
63.7584,599
63.7694,554.2109
63.7804,598.0359
63.7914,563.4243
63.8024,589.845
63.8134,597.6697
63.8244,546.3092
63.8354,629.3185
63.8464,569.1636
63.8574,566.0118
63.8684,597.7119
63.8794,553.0187
63.8904,554.8985
63.9014,582.2643
63.9124,565.4443
63.9234,559.8678
63.9344,609.1529
63.9454,572.1178
63.9564,640.9527
63.9674,630.4787
63.9784,612.0172
63.9894,564.8584
64.0004,569.2324
64.0114,594.3439
64.0224,583.6745
64.0334,612.5139
64.0444,590.2795
64.0554,615.953
64.0664,631.7236
64.0774,622.8003
64.0884,609.6678
64.0994,587.8193
64.1104,602.0624
64.1214,588.6162
64.1324,580.6582
64.1434,611.5684
64.1544,616.9558
64.1654,614.2348
64.1764,587.3285
64.1874,574.6995
64.1984,581.9947
64.2094,563.1988
64.2204,582.5932
64.2314,587.5239
64.2424,585.456
64.2534,603.6195
64.2644,598.0224
64.2754,587.9223
64.2864,609.3588
64.2974,619.3704
64.3084,592.5528
64.3194,575.938
64.3304,586.0656
64.3414,617.7919
64.3524,631.1695
64.3634,631.357
64.3744,621.4206
64.3854,636.5314
64.3964,654
64.4074,662.5213
64.4184,653.0971
64.4294,623.1029
64.4404,617.4554
64.4514,591.3978
64.4624,621.568
64.4734,634.4463
64.4844,634.1682
64.4954,658.6237
64.5064,646.4215
64.5174,618.2475
64.5284,652.6564
64.5394,648.8523
64.5504,667.5903
64.5614,672.6578
64.5724,643.451
64.5834,687.5405
64.5944,710.6289
64.6054,738.727
64.6164,797.9004
64.6274,862.687
64.6384,881.5345
64.6494,966.5113
64.6604,1068.9184
64.6714,1254.4041
64.6824,1360.9302
64.6934,1526.7992
64.7044,1739.3311
64.7154,1778.6788
64.7264,1928.6259
64.7374,1738.5211
64.7484,1826.0408
64.7594,1620.573
64.7704,1402.817
64.7814,1248.4677
64.7924,1117.4849
64.8034,1079.0795
64.8144,1059.7799
64.8254,1036.011
64.8364,1142.4794
64.8474,1116.2311
64.8584,1207.6622
64.8694,1210.1204
64.8804,1249.0179
64.8914,1260.676
64.9024,1212.6913
64.9134,1164.8575
64.9244,1070.2662
64.9354,942.794
64.9464,830.2655
64.9574,809.7766
64.9684,722
64.9794,722
64.9904,718.0987
65.0014,719.2571
65.0124,726.3796
65.0234,655.7638
65.0344,657.0812
65.0454,685.2829
65.0564,667.6647
65.0674,676.7683
65.0784,688.2475
65.0894,669.7414
65.1004,653.382
65.1114,627.3717
65.1224,635.4834
65.1334,636.5417
65.1444,645.8544
65.1554,687.1116
65.1664,702.7786
65.1774,682.6812
65.1884,691.6971
65.1994,721.4043
65.2104,749.7423
65.2214,768.9636
65.2324,787.0977
65.2434,836.0242
65.2544,885.203
65.2654,952.3608
65.2764,1007.9693
65.2874,1027.5114
65.2984,1044.689
65.3094,958.671
65.3204,879.8777
65.3314,791.0666
65.3424,770.2157
65.3534,795.9796
65.3644,776.5586
65.3754,738.4598
65.3864,759.3181
65.3974,694.3656
65.4084,720.4448
65.4194,744.9578
65.4304,735.4758
65.4414,793.8858
65.4524,774.1843
65.4634,814.2593
65.4744,735.0962
65.4854,729.0769
65.4964,656.2306
65.5074,675.1863
65.5184,630.9964
65.5294,643.5588
65.5404,624.2593
65.5514,642.2864
65.5624,591.9458
65.5734,643.4254
65.5844,626.8287
65.5954,596.9171
65.6064,550.4258
65.6174,628.697
65.6284,609.6217
65.6394,626.7347
65.6504,596.0759
65.6614,613.0295
65.6724,616.7968
65.6834,651.3803
65.6944,634.4204
65.7054,639.9316
65.7164,594.7788
65.7274,639.6533
65.7384,596.6981
65.7494,631.9136
65.7604,569.8895
65.7714,657.8933
65.7824,616.6946
65.7934,606.9546
65.8044,602.1066
65.8154,627.9978
65.8264,613.4958
65.8374,630.891
65.8484,648.1261
65.8594,664.6851
65.8704,639.6988
65.8814,627.9936
65.8924,658.1243
65.9034,657.7642
65.9144,679.0687
65.9254,676.9186
65.9364,627.391
65.9474,654.4823
65.9584,679.166
65.9694,675.9118
65.9804,680.4475
65.9914,656.2429
66.0024,666.726
66.0134,722.8967
66.0244,744.5178
66.0354,709.6876
66.0464,713.039
66.0574,710.2836
66.0684,736.04
66.0794,728.6929
66.0904,713.9784
66.1014,749.101
66.1124,760.3938
66.1234,737.4218
66.1344,740.3069
66.1454,791.3559
66.1564,811.423
66.1674,786.0706
66.1784,810.9013
66.1894,837.5989
66.2004,858.3631
66.2114,847.5217
66.2224,871.5645
66.2334,885.8612
66.2444,933.579
66.2554,941.8139
66.2664,920.6547
66.2774,996.6826
66.2884,1080.3095
66.2994,1081.9319
66.3104,1085.2902
66.3214,1178.6768
66.3324,1285.7193
66.3434,1277.5807
66.3544,1379.3535
66.3654,1433.0976
66.3764,1547.3741
66.3874,1628.0105
66.3984,1689.1673
66.4094,1647.4163
66.4204,1630.2787
66.4314,1614.2063
66.4424,1522.8667
66.4534,1460.8913
66.4644,1324.379
66.4754,1276.0635
66.4864,1221.758
66.4974,1223.6638
66.5084,1180.0123
66.5194,1221.5845
66.5304,1211.23
66.5414,1334.1478
66.5524,1239.5202
66.5634,1334.9823
66.5744,1330.1299
66.5854,1204.9154
66.5964,1204.7466
66.6074,1227.3764
66.6184,1115.0626
66.6294,1043.8051
66.6404,1018.0576
66.6514,979.9387
66.6624,949.5133
66.6734,959.0467
66.6844,984.5317
66.6954,919.1828
66.7064,903.2553
66.7174,869.5328
66.7284,861.0208
66.7394,860.6397
66.7504,826.1468
66.7614,807.9821
66.7724,780.6942
66.7834,749.6353
66.7944,759.4824
66.8054,754.1874
66.8164,746.6291
66.8274,778.2383
66.8384,730.8253
66.8494,737.8993
66.8604,746.5876
66.8714,713.5208
66.8824,732.551
66.8934,684.9525
66.9044,680.5632
66.9154,670.8725
66.9264,643.4295
66.9374,645.0606
66.9484,647.1553
66.9594,658.6546
66.9704,649.6147
66.9814,652.1523
66.9924,605.744
67.0034,584.3741
67.0144,616.5194
67.0254,607.1766
67.0364,578.6217
67.0474,576.7022
67.0584,594.5578
67.0694,588.8395
67.0804,586.3354
67.0914,567.6928
67.1024,542.7004
67.1134,545.8517
67.1244,573.5594
67.1354,588.6274
67.1464,583.3086
67.1574,545.2472
67.1684,574.7854
67.1794,591.47
67.1904,580.6621
67.2014,567.5023
67.2124,537.9991
67.2234,505.5896
67.2344,560.1646
67.2454,578.2202
67.2564,592.2568
67.2674,563.0222
67.2784,603.9977
67.2894,561.1203
67.3004,559.2533
67.3114,573.8025
67.3224,538.7709
67.3334,562.8548
67.3444,557.2059
67.3554,549.6813
67.3664,583.7683
67.3774,536.0014
67.3884,585.5537
67.3994,559.4933
67.4104,570.5336
67.4214,535.8492
67.4324,567.6272
67.4434,542.0268
67.4544,568.907
67.4654,562.4092
67.4764,577.8107
67.4874,571.8965
67.4984,548.1273
67.5094,510.1571
67.5204,577.3072
67.5314,605.842
67.5424,552.2323
67.5534,570.3717
67.5644,580.6269
67.5754,618.012
67.5864,564.0035
67.5974,612.3845
67.6084,611.2149
67.6194,581.3483
67.6304,596.2708
67.6414,586.2222
67.6524,583.2476
67.6634,578.8981
67.6744,600.9272
67.6854,594.1858
67.6964,588.0284
67.7074,572.9684
67.7184,566.5489
67.7294,580.2822
67.7404,578.6729
67.7514,582.4252
67.7624,584.5539
67.7734,571.8808
67.7844,604.9215
67.7954,596.4634
67.8064,603.6812
67.8174,582.5278
67.8284,572.743
67.8394,579.8869
67.8504,568.2386
67.8614,527.257
67.8724,529.2224
67.8834,553.6399
67.8944,537.9409
67.9054,534.5861
67.9164,548.6492
67.9274,551.9566
67.9384,527.715
67.9494,518.0974
67.9604,505.2185
67.9714,522.5482
67.9824,534.5544
67.9934,555.4685
68.0044,553.1649
68.0154,547.121
68.0264,533.6895
68.0374,554.912
68.0484,554.429
68.0594,589.0469
68.0704,546.2606
68.0814,528.5665
68.0924,537.8093
68.1034,550.3384
68.1144,542.7388
68.1254,558.076
68.1364,537.6388
68.1474,610.3374
68.1584,567.2071
68.1694,555.061
68.1804,537.8611
68.1914,511.4068
68.2024,547.7557
68.2134,566.1978
68.2244,535.6746
68.2354,538.0876
68.2464,554.2701
68.2574,517.7577
68.2684,524.1511
68.2794,536.2214
68.2904,511.4201
68.3014,523.4357
68.3124,505.5322
68.3234,547.324
68.3344,512.1235
68.3454,566.557
68.3564,517.5922
68.3674,545.2675
68.3784,553.686
68.3894,564.8667
68.4004,518.9221
68.4114,579.2088
68.4224,526.6643
68.4334,532.6784
68.4444,531.7922
68.4554,547.899
68.4664,562.9663
68.4774,532.4332
68.4884,501.5534
68.4994,521.6478
68.5104,518.1494
68.5214,542.2455
68.5324,521.089
68.5434,519.0174
68.5544,499.9696
68.5654,507.3296
68.5764,520.267
68.5874,522.9548
68.5984,529.7493
68.6094,539.4692
68.6204,549.1548
68.6314,539.0589
68.6424,547.3545
68.6534,560.6435
68.6644,534.6713
68.6754,554.0415
68.6864,543.7261
68.6974,532.913
68.7084,533.3296
68.7194,492.5605
68.7304,506.5371
68.7414,528.1241
68.7524,532.9001
68.7634,536.0425
68.7744,525.4951
68.7854,514.5106
68.7964,498.3347
68.8074,505.0302
68.8184,508.206
68.8294,523.927
68.8404,542.075
68.8514,528.5545
68.8624,531.2789
68.8734,535.5988
68.8844,555.5559
68.8954,546.804
68.9064,523.8287
68.9174,511.52
68.9284,500.0766
68.9394,512.1419
68.9504,534.3822
68.9614,560.5205
68.9724,539.9125
68.9834,519.3391
68.9944,556.3718
69.0054,547.1176
69.0164,559.4826
69.0274,574.48
69.0384,569.9512
69.0494,554.4767
69.0604,555.8467
69.0714,608.6644
69.0824,540.9257
69.0934,570.6112
69.1044,536.1528
69.1154,585.5002
69.1264,581.6586
69.1374,556.7608
69.1484,597.4931
69.1594,559.7537
69.1704,553.2079
69.1814,571.8596
69.1924,554.8498
69.2034,530.7785
69.2144,559.3956
69.2254,547.1021
69.2364,556.031
69.2474,563.5353
69.2584,593.288
69.2694,537.3219
69.2804,564.8376
69.2914,512.3604
69.3024,558.9055
69.3134,546.8143
69.3244,557.3636
69.3354,569.4859
69.3464,509.0938
69.3574,545.1171
69.3684,549.7211
69.3794,541.1055
69.3904,556.8812
69.4014,544.3281
69.4124,589.3803
69.4234,565.1844
69.4344,529.4513
69.4454,531.7139
69.4564,538.7549
69.4674,553
69.4784,555.1987
69.4894,567.604
69.5004,556.4533
69.5114,491.3766
69.5224,508.4682
69.5334,544.9822
69.5444,562.6123
69.5554,598.6695
69.5664,565.6246
69.5774,541.1165
69.5884,577.955
69.5994,571.1381
69.6104,544
69.6214,552.2578
69.6324,562.5531
69.6434,560.6224
69.6544,586.8182
69.6654,594.2944
69.6764,584.8745
69.6874,618.7929
69.6984,653.1818
69.7094,632.2264
69.7204,615.812
69.7314,657.9917
69.7424,661.0562
69.7534,633.7756
69.7644,658.2868
69.7754,653.0919
69.7864,633.762
69.7974,636.7877
69.8084,629.99
69.8194,635.4938
69.8304,596.2338
69.8414,576.7218
69.8524,561.3744
69.8634,599.1216
69.8744,614.4134
69.8854,610.8112
69.8964,569.1956
69.9074,565.5587
69.9184,582.0302
69.9294,617.9297
69.9404,588.2379
69.9514,565.1463
69.9624,568.5252
69.9734,578.2794
69.9844,585.8816
69.9954,574.2122
70.0064,572.8648
70.0174,583.5252
70.0284,538.7516
70.0394,506.8512
70.0504,522.2795
70.0614,545.3041
70.0724,557.3241
70.0834,538.9831
70.0944,517.7741
70.1054,531.6314
70.1164,532.9877
70.1274,545
70.1384,540.6678
70.1494,514.3197
70.1604,528.3647
70.1714,561.7379
70.1824,522.6714
70.1934,590.7547
70.2044,546.7302
70.2154,513.1801
70.2264,521.1236
70.2374,502.5481
70.2484,537.8395
70.2594,550.2474
70.2704,523.0722
70.2814,556.0325
70.2924,557.3125
70.3034,547.6867
70.3144,563.2983
70.3254,519.4425
70.3364,517.0298
70.3474,499.8209
70.3584,494.7437
70.3694,515.6479
70.3804,526.418
70.3914,551.4951
70.4024,526.151
70.4134,547.9377
70.4244,559.1098
70.4354,534.1237
70.4464,574.871
70.4574,566.7937
70.4684,552.9
70.4794,526.4398
70.4904,548.7067
70.5014,558.3284
70.5124,561.5926
70.5234,562.3627
70.5344,577.1938
70.5454,617.1438
70.5564,592.1717
70.5674,575.0743
70.5784,609.0631
70.5894,613.9026
70.6004,593.0301
70.6114,582.949
70.6224,602.9339
70.6334,599.1688
70.6444,593.3546
70.6554,588.5603
70.6664,609.1023
70.6774,603.032
70.6884,624.9844
70.6994,599.0641
70.7104,639.7494
70.7214,640.1587
70.7324,661.8851
70.7434,668.6104
70.7544,659.497
70.7654,682.9512
70.7764,712.5799
70.7874,749.499
70.7984,759.2502
70.8094,794.0546
70.8204,841.3943
70.8314,855.9332
70.8424,994.4159
70.8534,1000.6073
70.8644,1227.0538
70.8754,1340.521
70.8864,1576.0487
70.8974,1809.5866
70.9084,2139.4551
70.9194,2426.3659
70.9304,2862.6633
70.9414,3443.8148
70.9524,3799.3635
70.9634,4303.2751
70.9744,4400.4103
70.9854,4118.3035
70.9964,3865.1909
71.0074,3235.574
71.0184,2647.5599
71.0294,2235.2586
71.0404,1888.205
71.0514,1795.2871
71.0624,1624.5972
71.0734,1615.7148
71.0844,1622.1626
71.0954,1783.9171
71.1064,1927.955
71.1174,2041.6302
71.1284,2217.0173
71.1394,2417.0845
71.1504,2402.7014
71.1614,2325.3441
71.1724,2126.7136
71.1834,1831.0349
71.1944,1531.2073
71.2054,1304.1385
71.2164,1115.4892
71.2274,953.8807
71.2384,866.2414
71.2494,836.8099
71.2604,732.3066
71.2714,710.7059
71.2824,746.3694
71.2934,684.1884
71.3044,651.3272
71.3154,642.9293
71.3264,657.1152
71.3374,666.5358
71.3484,646.6986
71.3594,608.3251
71.3704,579.6664
71.3814,578.6405
71.3924,593.2112
71.4034,573.9299
71.4144,562.5045
71.4254,590.4185
71.4364,607.4338
71.4474,573.5777
71.4584,561.2318
71.4694,541.5293
71.4804,525.8425
71.4914,561.4882
71.5024,575.6361
71.5134,555.6369
71.5244,547.4878
71.5354,561.3188
71.5464,542.0644
71.5574,515.228
71.5684,536.236
71.5794,524.9906
71.5904,532.7541
71.6014,521.1195
71.6124,504.3628
71.6234,521.8046
71.6344,519.3739
71.6454,539.7585
71.6564,563.7524
71.6674,530.079
71.6784,537.7245
71.6894,528.1118
71.7004,523.5153
71.7114,542.4781
71.7224,536.2668
71.7334,516.3154
71.7444,504.7388
71.7554,548.8689
71.7664,538.2155
71.7774,510.3773
71.7884,523.1192
71.7994,539.0238
71.8104,508.4199
71.8214,535.2492
71.8324,526.3283
71.8434,513.0736
71.8544,497.1247
71.8654,511.072
71.8764,503.4114
71.8874,541.6632
71.8984,538.1056
71.9094,553.8586
71.9204,510.1726
71.9314,559.7009
71.9424,540.8598
71.9534,536.4839
71.9644,546.8424
71.9754,525.0264
71.9864,511.6948
71.9974,520.5369
72.0084,520.1985
72.0194,475.7303
72.0304,526.7364
72.0414,516.8908
72.0524,516.0378
72.0634,548.6941
72.0744,543.9308
72.0854,553.5635
72.0964,548.9962
72.1074,526.5224
72.1184,536.6642
72.1294,500.0521
72.1404,507.7188
72.1514,532.4146
72.1624,517.5725
72.1734,541.2952
72.1844,553.1203
72.1954,538.0961
72.2064,511.4332
72.2174,502.1127
72.2284,547.9949
72.2394,562.6401
72.2504,547.1126
72.2614,529.6895
72.2724,520.5746
72.2834,491.6815
72.2944,490.2584
72.3054,515.6912
72.3164,548.9599
72.3274,534.9164
72.3384,519.532
72.3494,508.2421
72.3604,522.9313
72.3714,537.6108
72.3824,518.4965
72.3934,509.959
72.4044,534.8852
72.4154,546.7828
72.4264,569.4783
72.4374,579.1887
72.4484,569.6592
72.4594,550.2514
72.4704,543.09
72.4814,522.9396
72.4924,515.1407
72.5034,527.1683
72.5144,536.003
72.5254,528.4875
72.5364,524.6918
72.5474,513.7353
72.5584,558.427
72.5694,564.1561
72.5804,536.0316
72.5914,504.6506
72.6024,548.2884
72.6134,575.6668
72.6244,549.767
72.6354,529.1621
72.6464,548.8105
72.6574,553.173
72.6684,577.3381
72.6794,577.7423
72.6904,561.4511
72.7014,570.3895
72.7124,531.1332
72.7234,533.2056
72.7344,529.435
72.7454,532.7011
72.7564,518.9364
72.7674,552.1951
72.7784,573.2431
72.7894,607.1312
72.8004,579.3846
72.8114,604.9747
72.8224,599.7397
72.8334,577.543
72.8444,599.3897
72.8554,584.8795
72.8664,619.5202
72.8774,583.4016
72.8884,612.2136
72.8994,598.2573
72.9104,647.4386
72.9214,645.3908
72.9324,611.7115
72.9434,653.2417
72.9544,641.8883
72.9654,644.7263
72.9764,689.3841
72.9874,706.4576
72.9984,727.5926
73.0094,714.7094
73.0204,735.0233
73.0314,728.1601
73.0424,778.7714
73.0534,770.7616
73.0644,743.2817
73.0754,757.2306
73.0864,781.6487
73.0974,742.6983
73.1084,701.9486
73.1194,698.4979
73.1304,666.0664
73.1414,672.4131
73.1524,662.5177
73.1634,635.177
73.1744,640.6417
73.1854,635.9938
73.1964,642.6023
73.2074,662.4944
73.2184,650.2772
73.2294,646.5339
73.2404,631.1702
73.2514,628.2481
73.2624,636.4674
73.2734,633.061
73.2844,638.1653
73.2954,601.0522
73.3064,580.8031
73.3174,576.1963
73.3284,550.159
73.3394,540
73.3504,546.6142
73.3614,558.363
73.3724,547.9791
73.3834,534.5329
73.3944,541.1064
73.4054,578.4745
73.4164,580.1492
73.4274,565.4394
73.4384,529.1179
73.4494,520.6953
73.4604,547.6228
73.4714,556.2635
73.4824,544.7683
73.4934,528.8228
73.5044,547.4276
73.5154,541.4295
73.5264,534.0103
73.5374,541.1024
73.5484,565.2083
73.5594,535.7724
73.5704,523.0702
73.5814,542.6256
73.5924,534.668
73.6034,544.4918
73.6144,533.4521
73.6254,519.2801
73.6364,528.1294
73.6474,549.5293
73.6584,558.5635
73.6694,580.0701
73.6804,524.7388
73.6914,548.5401
73.7024,565.9083
73.7134,530.0414
73.7244,536.4221
73.7354,558.1574
73.7464,563.6127
73.7574,575.2622
73.7684,546.1367
73.7794,547.8387
73.7904,546.0929
73.8014,547.947
73.8124,556.8226
73.8234,562.2212
73.8344,551.7424
73.8454,527.2562
73.8564,560.4995
73.8674,536.7695
73.8784,571.2622
73.8894,545.168
73.9004,537.5683
73.9114,539.8783
73.9224,553.7213
73.9334,552.2093
73.9444,540.735
73.9554,547.7643
73.9664,561.3395
73.9774,560.3959
73.9884,583.4332
73.9994,553.7148
74.0104,542.5637
74.0214,526.4896
74.0324,530.9001
74.0434,544.7412
74.0544,544.5342
74.0654,540.791
74.0764,528.6125
74.0874,558.6198
74.0984,556.828
74.1094,531.9556
74.1204,552.8532
74.1314,577.7865
74.1424,544.7702
74.1534,524.4751
74.1644,528.4025
74.1754,528.7081
74.1864,519.0793
74.1974,515.2155
74.2084,511.9201
74.2194,497.7049
74.2304,497.092
74.2414,528.0527
74.2524,525.6795
74.2634,521.3217
74.2744,508.6216
74.2854,491.5397
74.2964,520.916
74.3074,523.9172
74.3184,499.2445
74.3294,499.3423
74.3404,512.1973
74.3514,542.6317
74.3624,528.8418
74.3734,503.6241
74.3844,542.6423
74.3954,525.4735
74.4064,498.8129
74.4174,501.1417
74.4284,502.1942
74.4394,483.1836
74.4504,474.848
74.4614,485.7976
74.4724,492.2749
74.4834,532.0271
74.4944,530.084
74.5054,512.0548
74.5164,525.3704
74.5274,499.507
74.5384,519.2894
74.5494,535.1152
74.5604,543.6264
74.5714,513.1009
74.5824,547.204
74.5934,479.6777
74.6044,444.1111
74.6154,489.8266
74.6264,543.6744
74.6374,497.6524
74.6484,535.8314
74.6594,495.4247
74.6704,487.7622
74.6814,499.0357
74.6924,517.984
74.7034,502.1487
74.7144,520.2538
74.7254,529.9637
74.7364,534.5004
74.7474,527.1358
74.7584,523.0509
74.7694,482.9129
74.7804,510.2122
74.7914,498.5772
74.8024,495.8815
74.8134,492.236
74.8244,498.4624
74.8354,515
74.8464,522.0947
74.8574,533.0154
74.8684,516.272
74.8794,528.6462
74.8904,529.0168
74.9014,510.3403
74.9124,511.1872
74.9234,496.104
74.9344,510.2113
74.9454,548.4127
74.9564,533.3958
74.9674,537.2646
74.9784,532.752
74.9894,506.155
75.0004,510.2474
75.0114,536.171
75.0224,543.3906
75.0334,527.9817
75.0444,523.7174
75.0554,521.667
75.0664,511.0421
75.0774,522.8761
75.0884,504.7017
75.0994,497.6668
75.1104,525.7143
75.1214,509.9315
75.1324,501.9959
75.1434,517.2331
75.1544,500.2553
75.1654,533.3106
75.1764,516.3709
75.1874,533.8493
75.1984,529.3525
75.2094,505.1444
75.2204,497.2369
75.2314,510.0612
75.2424,518.8614
75.2534,503.9919
75.2644,523.8977
75.2754,520.9644
75.2864,514.7065
75.2974,519.4376
75.3084,525.7346
75.3194,548.6375
75.3304,520.6391
75.3414,498.9585
75.3524,521.9861
75.3634,521.0461
75.3744,526.9028
75.3854,519.2487
75.3964,510.9006
75.4074,545.9887
75.4184,530.8478
75.4294,506.8168
75.4404,540.5904
75.4514,515.4824
75.4624,535.1458
75.4734,517.5042
75.4844,523.9003
75.4954,485.0762
75.5064,545.6072
75.5174,508.2715
75.5284,522.3395
75.5394,583.4121
75.5504,515.046
75.5614,575.3386
75.5724,529.8498
75.5834,552.6985
75.5944,581.2599
75.6054,603.8875
75.6164,576.2652
75.6274,592.892
75.6384,597.3712
75.6494,576.4602
75.6604,628.2116
75.6714,543.8053
75.6824,539.2741
75.6934,537.9378
75.7044,567.3266
75.7154,519.8037
75.7264,543.4877
75.7374,535.8257
75.7484,537.5288
75.7594,582.6558
75.7704,580.3585
75.7814,586.7295
75.7924,573.1132
75.8034,556.1329
75.8144,578.0525
75.8254,593.398
75.8364,591.4767
75.8474,597.216
75.8584,588.0548
75.8694,599.0797
75.8804,610.5646
75.8914,625.5242
75.9024,645.8485
75.9134,663.6047
75.9244,656.2712
75.9354,674.4844
75.9464,675.4031
75.9574,714.7694
75.9684,775
75.9794,786.3159
75.9904,792.6931
76.0014,797.8881
76.0124,847.7551
76.0234,885.2921
76.0344,881.7963
76.0454,899.0535
76.0564,818.6417
76.0674,738.4243
76.0784,737.34
76.0894,736.0589
76.1004,714.4746
76.1114,706
76.1224,707.3973
76.1334,717.242
76.1444,729.6786
76.1554,734.471
76.1664,752.1994
76.1774,756.4798
76.1884,762.1791
76.1994,804.0183
76.2104,831.7362
76.2214,827.0982
76.2324,835.6801
76.2434,868.0181
76.2544,888.3842
76.2654,869.5395
76.2764,855.5515
76.2874,825.744
76.2984,844.3823
76.3094,821.5877
76.3204,816.2404
76.3314,761.0022
76.3424,751.3333
76.3534,712.7301
76.3644,674.1765
76.3754,669.0747
76.3864,712.7193
76.3974,627.3488
76.4084,685.0352
76.4194,632.6341
76.4304,619.6737
76.4414,592.3132
76.4524,636.3789
76.4634,694.7696
76.4744,667.9886
76.4854,659.8763
76.4964,672.1545
76.5074,639.6506
76.5184,617.8467
76.5294,626.3749
76.5404,631.2473
76.5514,561.2881
76.5624,564.4694
76.5734,583.4921
76.5844,541.6205
76.5954,521.4489
76.6064,551.9717
76.6174,537.0069
76.6284,540.7921
76.6394,546.0395
76.6504,541.5899
76.6614,514.6108
76.6724,530.2033
76.6834,534.6082
76.6944,501.8802
76.7054,504.3036
76.7164,527.5059
76.7274,513.6139
76.7384,511.7186
76.7494,499.159
76.7604,509.6011
76.7714,486.6285
76.7824,493.5112
76.7934,488.5516
76.8044,505.5059
76.8154,526.9459
76.8264,524.1179
76.8374,515.522
76.8484,499.7834
76.8594,497.3542
76.8704,517.8263
76.8814,510.9583
76.8924,505.5032
76.9034,502.7166
76.9144,527.6811
76.9254,543.2535
76.9364,527.0529
76.9474,505.7293
76.9584,503.9603
76.9694,504.1297
76.9804,505.2867
76.9914,494.9467
77.0024,499.9107
77.0134,497.3637
77.0244,501.065
77.0354,510.4691
77.0464,517.3865
77.0574,536.841
77.0684,507.4837
77.0794,469.8895
77.0904,500.2322
77.1014,518.1329
77.1124,507.9275
77.1234,522.9767
77.1344,484.7
77.1454,559.3286
77.1564,510.0964
77.1674,494.6686
77.1784,507.1786
77.1894,546.4164
77.2004,512.1642
77.2114,475.9593
77.2224,508.2542
77.2334,478.0989
77.2444,511.2359
77.2554,465.7339
77.2664,525.545
77.2774,469.6266
77.2884,487.0208
77.2994,500.38
77.3104,458.3984
77.3214,545.9669
77.3324,494.848
77.3434,492.3147
77.3544,497.2257
77.3654,500.175
77.3764,503.2976
77.3874,511.3005
77.3984,482.9952
77.4094,486.5828
77.4204,474.9816
77.4314,524.5815
77.4424,493.8103
77.4534,535.8322
77.4644,549.6687
77.4754,519.1583
77.4864,524.6863
77.4974,548.6545
77.5084,529.9785
77.5194,523.5392
77.5304,500.507
77.5414,527.1796
77.5524,517.4118
77.5634,524.1933
77.5744,511.558
77.5854,531.9999
77.5964,515.0134
77.6074,496.5683
77.6184,508.8088
77.6294,508.7544
77.6404,491.2933
77.6514,518.044
77.6624,510.452
77.6734,498.5747
77.6844,471.6681
77.6954,490.0753
77.7064,518.2169
77.7174,505.6898
77.7284,479.1099
77.7394,484.6463
77.7504,523.8856
77.7614,531.5699
77.7724,522.4229
77.7834,512.0262
77.7944,504.535
77.8054,505.1042
77.8164,498.2683
77.8274,486.5475
77.8384,476.0717
77.8494,491.2216
77.8604,494.9532
77.8714,485.7767
77.8824,486.9912
77.8934,479.5151
77.9044,510.8689
77.9154,519.9792
77.9264,481.996
77.9374,490.5264
77.9484,460.5746
77.9594,465.781
77.9704,481.9259
77.9814,500.5165
77.9924,493.1783
78.0034,471.5907
78.0144,488.1301
78.0254,461.6505
78.0364,477.6065
78.0474,512.5845
78.0584,490.4205
78.0694,485.1258
78.0804,480.5678
78.0914,497.9747
78.1024,508.1992
78.1134,528.3896
78.1244,518.7727
78.1354,533.1664
78.1464,544.5621
78.1574,532.3578
78.1684,579.269
78.1794,543.1087
78.1904,582.1684
78.2014,599.394
78.2124,573.7986
78.2234,625.1387
78.2344,624.7815
78.2454,580.9306
78.2564,676.5238
78.2674,582.523
78.2784,576.8155
78.2894,562.2011
78.3004,530.1743
78.3114,548.9762
78.3224,538.0979
78.3334,539.9407
78.3444,523.6286
78.3554,545.0367
78.3664,565.176
78.3774,555.2327
78.3884,536.7648
78.3994,564.0152
78.4104,577.0068
78.4214,553.2336
78.4324,571.6907
78.4434,549.6376
78.4544,573.6087
78.4654,557.902
78.4764,515.0794
78.4874,504.3648
78.4984,497.4554
78.5094,491.3396
78.5204,514.7809
78.5314,508.1176
78.5424,481.1547
78.5534,491.7479
78.5644,508.6098
78.5754,519.2515
78.5864,543.6079
78.5974,524.9664
78.6084,508.4717
78.6194,486.7598
78.6304,473.998
78.6414,499.6909
78.6524,526.5767
78.6634,508.6367
78.6744,496.4013
78.6854,520.8107
78.6964,523.2062
78.7074,555.2664
78.7184,544.246
78.7294,534.7368
78.7404,574.0758
78.7514,538.1956
78.7624,534.588
78.7734,538.4275
78.7844,552.519
78.7954,565.4268
78.8064,539.0939
78.8174,531.9696
78.8284,524.6109
78.8394,548.1775
78.8504,522.8996
78.8614,539.087
78.8724,514.0584
78.8834,510.2695
78.8944,575.6785
78.9054,502.2818
78.9164,503.1552
78.9274,541.3142
78.9384,554.7612
78.9494,544.8533
78.9604,539.5211
78.9714,554.8763
78.9824,543.5854
78.9934,503.9228
79.0044,575.3491
79.0154,519.6108
79.0264,493.3001
79.0374,517.8056
79.0484,500.6069
79.0594,533.3318
79.0704,523.081
79.0814,524.8521
79.0924,494.6384
79.1034,476.4199
79.1144,555.2476
79.1254,533.6725
79.1364,459.3277
79.1474,478.4721
79.1584,481.6349
79.1694,463.2661
79.1804,512.9286
79.1914,536.7359
79.2024,495.5414
79.2134,506.5242
79.2244,515.8236
79.2354,506.9017
79.2464,455.4647
79.2574,491.9683
79.2684,485.6245
79.2794,519.4168
79.2904,504.4616
79.3014,482.5255
79.3124,504.8435
79.3234,485.5374
79.3344,459.1505
79.3454,483.2939
79.3564,517.7019
79.3674,484.3245
79.3784,478.2643
79.3894,483.1521
79.4004,512.6636
79.4114,501.2634
79.4224,498.4736
79.4334,498.4246
79.4444,513.4004
79.4554,540.6576
79.4664,510.2442
79.4774,498.5541
79.4884,527.7343
79.4994,520.0644
79.5104,493.2201
79.5214,466.6337
79.5324,457.6861
79.5434,483.1134
79.5544,494.8662
79.5654,471.7163
79.5764,476.8791
79.5874,489.8671
79.5984,469.687
79.6094,463.3541
79.6204,464.5712
79.6314,506.9832
79.6424,520.7328
79.6534,511.0678
79.6644,509.3436
79.6754,513.6805
79.6864,479.2294
79.6974,488.3427
79.7084,495.0614
79.7194,488.6931
79.7304,498.6816
79.7414,474.0467
79.7524,481.3577
79.7634,469.3596
79.7744,484.2609
79.7854,486.0422
79.7964,435.1615
79.8074,485.0265
79.8184,461.7207
79.8294,480.0623
79.8404,526.7976
79.8514,514.9633
79.8624,478.6514
79.8734,491.7977
79.8844,479.5652
79.8954,477.0855
79.9064,499.2422
79.9174,521.6591
79.9284,454.5035
79.9394,537.7268
