Angle,Counts
5.9644,2362.3972
5.9754,2321.1858
5.9864,2311.1253
5.9974,2275.6273
6.0084,2307.4794
6.0194,2349.7738
6.0304,2292.9577
6.0414,2249.1534
6.0524,2249.1387
6.0634,2276.589
6.0744,2271.5442
6.0854,2251.8564
6.0964,2234.4031
6.1074,2189.2212
6.1184,2199.6588
6.1294,2216.2989
6.1404,2202.5148
6.1514,2243.1279
6.1624,2270.5595
6.1734,2216.0354
6.1844,2202.5015
6.1954,2224.5644
6.2064,2208.8525
6.2174,2221.7375
6.2284,2158.4286
6.2394,2158.3806
6.2504,2235.1844
6.2614,2222.0727
6.2724,2224.0664
6.2834,2158.7974
6.2944,2221.6038
6.3054,2149.345
6.3164,2176.5537
6.3274,2157.8957
6.3384,2170.7611
6.3494,2177.3717
6.3604,2180.9902
6.3714,2178.4336
6.3824,2145.2925
6.3934,2189.4238
6.4044,2161.7094
6.4154,2153.4307
6.4264,2174.5629
6.4374,2134.7551
6.4484,2169.2021
6.4594,2128.8741
6.4704,2277.0311
6.4814,2197.4591
6.4924,2109.6101
6.5034,2161.8732
6.5144,2125.6411
6.5254,2101.471
6.5364,2091.4911
6.5474,2186.7719
6.5584,2088.1789
6.5694,2069.2832
6.5804,2124.6972
6.5914,2094.3098
6.6024,2139.8437
6.6134,2180.0422
6.6244,2091.9755
6.6354,2149.7698
6.6464,2039.891
6.6574,2190.3893
6.6684,2055.8628
6.6794,2047.0994
6.6904,2141.0698
6.7014,2082.177
6.7124,2127.7645
6.7234,2072.1544
6.7344,2079.3334
6.7454,2095.9675
6.7564,2041.1525
6.7674,2087.5663
6.7784,2047.5182
6.7894,2110.3373
6.8004,2143.997
6.8114,2081.9312
6.8224,2119.5452
6.8334,2075.0177
6.8444,2064.058
6.8554,2111.2635
6.8664,2107.9822
6.8774,2034.6362
6.8884,2027.357
6.8994,2106.1033
6.9104,2161.5536
6.9214,2138.2389
6.9324,2101.0103
6.9434,2069.6047
6.9544,2093.4872
6.9654,2094.2566
6.9764,2081.3707
6.9874,2095.5379
6.9984,2117.0797
7.0094,2100.1416
7.0204,2080.1283
7.0314,2088.0177
7.0424,2082.5108
7.0534,2089.2773
7.0644,2074.6548
7.0754,2077.8122
7.0864,2050.2015
7.0974,2072.2272
7.1084,2130.7832
7.1194,2089.4768
7.1304,2077.1475
7.1414,2119.9646
7.1524,2071.0924
7.1634,2031.708
7.1744,2052.7242
7.1854,2131.06
7.1964,2053.3716
7.2074,2086.8123
7.2184,2117.6327
7.2294,2094.1268
7.2404,2067.6986
7.2514,2103.4278
7.2624,2121.0266
7.2734,2118.1554
7.2844,2158.4047
7.2954,2104.1386
7.3064,2004.0024
7.3174,2103.4416
7.3284,2006.2728
7.3394,1997.8535
7.3504,2072.8172
7.3614,2053.7787
7.3724,2019.9749
7.3834,2093.59
7.3944,1992.6961
7.4054,1992.9135
7.4164,2030.2198
7.4274,2041.469
7.4384,2047.7198
7.4494,2005.5142
7.4604,2064.6284
7.4714,2069.9607
7.4824,1994.0197
7.4934,2003.0178
7.5044,2071.8924
7.5154,2101.5614
7.5264,2040.9675
7.5374,2023.5979
7.5484,2042.8087
7.5594,1996.6018
7.5704,2042.6898
7.5814,2037.7847
7.5924,2078.5884
7.6034,1995.0285
7.6144,2023.7469
7.6254,2062.4512
7.6364,1990.6136
7.6474,2054.8132
7.6584,2046.8318
7.6694,2030.8958
7.6804,2069.1573
7.6914,2019.8967
7.7024,1988.3796
7.7134,2030.056
7.7244,2007.4587
7.7354,2047.6795
7.7464,2068.2045
7.7574,2031.8231
7.7684,2059.2546
7.7794,2015.9764
7.7904,2025.9956
7.8014,2076.7945
7.8124,2080.3712
7.8234,2043.0353
7.8344,2012.8703
7.8454,2060
7.8564,2019.6459
7.8674,1960.5388
7.8784,1984.476
7.8894,2024.5723
7.9004,1993.847
7.9114,1971.7906
7.9224,2008.7994
7.9334,1963.2074
7.9444,1953.3496
7.9554,2039.2301
7.9664,2065.9376
7.9774,1999.4444
7.9884,2032.2022
7.9994,2078.3363
8.0104,2095.4366
8.0214,2082.3451
8.0324,2094.3186
8.0434,2030.6734
8.0544,1977.792
8.0654,1977.9617
8.0764,1985.6618
8.0874,1985.6077
8.0984,1954.9882
8.1094,2003.1653
8.1204,2029.7153
8.1314,2019.0855
8.1424,1944.7074
8.1534,2002.7435
8.1644,1991.7748
8.1754,1992.4287
8.1864,2012.5708
8.1974,2000.9725
8.2084,2029.5467
8.2194,1990.7463
8.2304,2028.7803
8.2414,1962.3018
8.2524,1986.9646
8.2634,1967.6214
8.2744,1995.0595
8.2854,2010.6962
8.2964,1977.3441
8.3074,1908.3756
8.3184,1955.4484
8.3294,1995.0571
8.3404,1941.2527
8.3514,2012.0089
8.3624,1985.4134
8.3734,1962.0452
8.3844,2065.761
8.3954,1947
8.4064,1947.7331
8.4174,1970.7847
8.4284,2021.527
8.4394,1942.3216
8.4504,2027.7521
8.4614,1928.1564
8.4724,1946.9317
8.4834,2013.4513
8.4944,2029.063
8.5054,2050.0668
8.5164,1979.0531
8.5274,1985.5674
8.5384,2019.3824
8.5494,1921.5044
8.5604,1958.5611
8.5714,2018.0294
8.5824,1934.2729
8.5934,1994.9961
8.6044,2030.6169
8.6154,1973.3275
8.6264,2031.6146
8.6374,1987.9821
8.6484,1897.4603
8.6594,1988.7207
8.6704,1968.0719
8.6814,2007.7079
8.6924,1977.8471
8.7034,1986.8398
8.7144,2019.6607
8.7254,2001.3038
8.7364,1995.2109
8.7474,1999.4956
8.7584,1974.7374
8.7694,1963.8712
8.7804,1970.379
8.7914,1973.2774
8.8024,1986.8343
8.8134,1954.0413
8.8244,1984.6279
8.8354,1992.8298
8.8464,1979.4779
8.8574,2000.3933
8.8684,2006.5909
8.8794,1928.0648
8.8904,1956.3571
8.9014,1968.8436
8.9124,1957.0118
8.9234,1967.4867
8.9344,1997.7434
8.9454,2030.7434
8.9564,2051.6387
8.9674,2010.0304
8.9784,1987.6962
8.9894,2000.6677
9.0004,1950.11
9.0114,1926
9.0224,1971.562
9.0334,1986.058
9.0444,2013.416
9.0554,1986.5162
9.0664,1947.967
9.0774,2007.4809
9.0884,1992.528
9.0994,2000.9941
9.1104,1950.7787
9.1214,1959.8456
9.1324,2001.2291
9.1434,1974.5221
9.1544,2021.2419
9.1654,1970.7226
9.1764,1935.2463
9.1874,2010.9588
9.1984,1976.6863
9.2094,2100.7052
9.2204,1968.3332
9.2314,1945.649
9.2424,1995.3894
9.2534,1945.9714
9.2644,1949.968
9.2754,1995.9115
9.2864,1980.4179
9.2974,1949.2134
9.3084,1957.2832
9.3194,1984.1278
9.3304,1949.8446
9.3414,1920.4779
9.3524,1929.034
9.3634,1957.9577
9.3744,1937.1149
9.3854,1856.6608
9.3964,1933.1471
9.4074,1989.3421
9.4184,1923.3432
9.4294,1921.5851
9.4404,1961.1328
9.4514,1973.0598
9.4624,1883.7582
9.4734,1967.9411
9.4844,2000.5082
9.4954,1877.3964
9.5064,1951.2965
9.5174,1971.9872
9.5284,1976.3964
9.5394,2032.0796
9.5504,2011.3023
9.5614,1988.3067
9.5724,1962.6755
9.5834,1958.0491
9.5944,1966.9288
9.6054,1996.7551
9.6164,1980.2615
9.6274,1961.6126
9.6384,1942.9469
9.6494,1962.2085
9.6604,2020.3909
9.6714,1981.1592
9.6824,1938.1009
9.6934,1941.6764
9.7044,1961.4072
9.7154,1943.3637
9.7264,1893.472
9.7374,1933.708
9.7484,1972.5143
9.7594,1971.1317
9.7704,1966.975
9.7814,1936.2959
9.7924,1888.6598
9.8034,1938.9706
9.8144,1901.9389
9.8254,1893.1908
9.8364,1965.8231
9.8474,1962.6833
9.8584,1976.237
9.8694,1967.2241
9.8804,1948.8628
9.8914,1984.8752
9.9024,1946.1872
9.9134,2002.066
9.9244,2016.1853
9.9354,1997.3628
9.9464,2002.0679
9.9574,1957.3873
9.9684,1997.6166
9.9794,1943.2575
9.9904,1976.5084
10.0014,1926.0825
10.0124,1932.735
10.0234,1966.4592
10.0344,1953.2124
10.0454,1943.0698
10.0564,1952.5428
10.0674,1980.7257
10.0784,1938.8426
10.0894,1985.2646
10.1004,1958.4572
10.1114,2035.9018
10.1224,1988.6228
10.1334,2032.3009
10.1444,2020.3235
10.1554,1987.3569
10.1664,2001.0192
10.1774,2014.592
10.1884,2054.3421
10.1994,1957.0325
10.2104,2007.5442
10.2214,1994.8465
10.2324,1939.9205
10.2434,2020.1868
10.2544,1976.7867
10.2654,2034.8613
10.2764,2025.9215
10.2874,2125.0156
10.2984,2038.9778
10.3094,2003.7443
10.3204,1960.9997
10.3314,2061.1858
10.3424,2053.6784
10.3534,2023.1564
10.3644,2030.5457
10.3754,2002.5447
10.3864,1954.3338
10.3974,1936.1918
10.4084,1939.8529
10.4194,1906.3058
10.4304,1914.4912
10.4414,1960.0138
10.4524,1953.2689
10.4634,1916
10.4744,1900.0506
10.4854,1885
10.4964,1903.8806
10.5074,1946.3275
10.5184,1966.5531
10.5294,1969.9646
10.5404,1943.0958
10.5514,1933.3098
10.5624,1934.699
10.5734,1921.7247
10.5844,1930.79
10.5954,1919.5782
10.6064,1941.8486
10.6174,1953
10.6284,1944.1991
10.6394,1937.06
10.6504,1939.6268
10.6614,1908.2802
10.6724,1902.974
10.6834,1938.1121
10.6944,1921.8362
10.7054,1921.5271
10.7164,1924.5275
10.7274,1916.7434
10.7384,1872.4385
10.7494,1884.5625
10.7604,1843.4674
10.7714,1897.008
10.7824,1856.2963
10.7934,1831.2331
10.8044,1922.4372
10.8154,1926.4808
10.8264,1941.6018
10.8374,1887.1454
10.8484,1911.0478
10.8594,1924.2242
10.8704,1918.4833
10.8814,1916.1996
10.8924,1894.8702
10.9034,1886.7001
10.9144,1872.6037
10.9254,1906.531
10.9364,1907.8289
10.9474,1944.5881
10.9584,1935.8171
10.9694,1905.2409
10.9804,1920.2203
10.9914,1843.5191
11.0024,1866.0035
11.0134,1885.062
11.0244,1920.5664
11.0354,1889.9085
11.0464,1931.3447
11.0574,1887.1327
11.0684,1930.8505
11.0794,1913.4424
11.0904,1843.2714
11.1014,1855.2056
11.1124,1936.3248
11.1234,1843.3009
11.1344,1821.4985
11.1454,1832.0551
11.1564,1888.183
11.1674,1945.6833
11.1784,1870.3968
11.1894,1862.1592
11.2004,1810.2331
11.2114,1878.5369
11.2224,1901.5222
11.2334,1951.5182
11.2444,1942.6361
11.2554,1883.4986
11.2664,1937.1553
11.2774,1915.9419
11.2884,1874.8688
11.2994,1889.8604
11.3104,1877.0064
11.3214,1857.2478
11.3324,1873.9986
11.3434,1903.0029
11.3544,1832.3981
11.3654,1809.5321
11.3764,1873.8697
11.3874,1831.9321
11.3984,1801.6353
11.4094,1864.9136
11.4204,1889.5928
11.4314,1860.4278
11.4424,1897.8172
11.4534,1839.4009
11.4644,1763.3319
11.4754,1774.5408
11.4864,1818.0739
11.4974,1877.6244
11.5084,1901.5581
11.5194,1865.3007
11.5304,1849.7754
11.5414,1885.5457
11.5524,1877.2493
11.5634,1870.5005
11.5744,1836.5393
11.5854,1875.6373
11.5964,1874.6508
11.6074,1865.7945
11.6184,1855.9159
11.6294,1821.642
11.6404,1856.6904
11.6514,1765.044
11.6624,1757.4986
11.6734,1807.6726
11.6844,1794.5825
11.6954,1799.6185
11.7064,1818.2778
11.7174,1840.6284
11.7284,1827.5831
11.7394,1921.9599
11.7504,1829.8066
11.7614,1889.3925
11.7724,1859.4861
11.7834,1929.0591
11.7944,1892.3819
11.8054,1931.6363
11.8164,1845.6547
11.8274,1864.0119
11.8384,1819.5565
11.8494,1840.2242
11.8604,1873.5118
11.8714,1859.7748
11.8824,1820.3259
11.8934,1794.6519
11.9044,1811.8693
11.9154,1866.5222
11.9264,1896.1053
11.9374,1864.6489
11.9484,1835.2138
11.9594,1856.6902
11.9704,1794.74
11.9814,1836.9115
11.9924,1833.6239
12.0034,1824.2969
12.0144,1815.4514
12.0254,1855.7403
12.0364,1770.0965
12.0474,1870.3656
12.0584,1786.6653
12.0694,1841.2398
12.0804,1776.9736
12.0914,1878.9627
12.1024,1882.3887
12.1134,1796.4956
12.1244,1835.0536
12.1354,1821.9291
12.1464,1795.8378
12.1574,1826.5722
12.1684,1808.7153
12.1794,1806.236
12.1904,1802.5212
12.2014,1846.3167
12.2124,1862.4291
12.2234,1813.1986
12.2344,1817.3805
12.2454,1797.8613
12.2564,1800.5124
12.2674,1847.5664
12.2784,1832.3346
12.2894,1812.9481
12.3004,1842.5121
12.3114,1798.4249
12.3224,1841.9896
12.3334,1829.1475
12.3444,1794.2683
12.3554,1746.2115
12.3664,1762.2419
12.3774,1760.4159
12.3884,1753.7674
12.3994,1755.4278
12.4104,1781.2655
12.4214,1780.3657
12.4324,1809.7415
12.4434,1814.7108
12.4544,1727.2924
12.4654,1759.8429
12.4764,1727.367
12.4874,1746.0691
12.4984,1823.4297
12.5094,1826.7079
12.5204,1839.3211
12.5314,1846.7797
12.5424,1829.2477
12.5534,1756.8111
12.5644,1751.5561
12.5754,1773.0118
12.5864,1767.8284
12.5974,1764.7178
12.6084,1792.7434
12.6194,1790.3795
12.6304,1786.7547
12.6414,1796.2036
12.6524,1835.625
12.6634,1750.223
12.6744,1756.3496
12.6854,1736.2517
12.6964,1797.1019
12.7074,1684.0529
12.7184,1735.0641
12.7294,1702.1395
12.7404,1711.6741
12.7514,1797.6481
12.7624,1781.8372
12.7734,1717.7315
12.7844,1771.3118
12.7954,1765.6706
12.8064,1797.3452
12.8174,1744.0737
12.8284,1732.2409
12.8394,1821.9264
12.8504,1859.9709
12.8614,1800.6037
12.8724,1769.9498
12.8834,1769.2705
12.8944,1801.3545
12.9054,1787.2654
12.9164,1755.3578
12.9274,1693.3069
12.9384,1769.932
12.9494,1683.8891
12.9604,1801.2723
12.9714,1775.9733
12.9824,1708.9825
12.9934,1801.6411
13.0044,1795.5088
13.0154,1758.5035
13.0264,1795.4085
13.0374,1790.4867
13.0484,1779.4479
13.0594,1776.8083
13.0704,1800.2862
13.0814,1816.8464
13.0924,1733.853
13.1034,1716.3186
13.1144,1739.7981
13.1254,1788.7619
13.1364,1721.7198
13.1474,1743.2617
13.1584,1772.0107
13.1694,1745.4219
13.1804,1761.2001
13.1914,1764.064
13.2024,1784.7566
13.2134,1760.9792
13.2244,1711.6322
13.2354,1710.767
13.2464,1711.7109
13.2574,1705.471
13.2684,1722.6755
13.2794,1740.476
13.2904,1754.9843
13.3014,1750.9557
13.3124,1785.2705
13.3234,1823.058
13.3344,1734.6856
13.3454,1737.6099
13.3564,1782.3259
13.3674,1783.6107
13.3784,1766.6577
13.3894,1816.3168
13.4004,1787.5794
13.4114,1746.0187
13.4224,1796.3325
13.4334,1783.8849
13.4444,1729.1253
13.4554,1770.8556
13.4664,1752.8509
13.4774,1667.5003
13.4884,1752.7132
13.4994,1685.5219
13.5104,1744.838
13.5214,1748.7394
13.5324,1721.9867
13.5434,1648.815
13.5544,1716.3704
13.5654,1753.59
13.5764,1667.7127
13.5874,1743.4073
13.5984,1774.0354
13.6094,1752.2399
13.6204,1785.8781
13.6314,1790.2537
13.6424,1809.4799
13.6534,1802.1249
13.6644,1724.5574
13.6754,1800.009
13.6864,1693.9118
13.6974,1701.1505
13.7084,1771.0621
13.7194,1770.1141
13.7304,1827.0591
13.7414,1861.8663
13.7524,1764.0637
13.7634,1653.9086
13.7744,1699.4048
13.7854,1770.769
13.7964,1785.1017
13.8074,1750.4394
13.8184,1709.7327
13.8294,1784.6224
13.8404,1778.3328
13.8514,1760.6402
13.8624,1788.5678
13.8734,1756.9107
13.8844,1817.792
13.8954,1783.9025
13.9064,1750.6521
13.9174,1843.0255
13.9284,1800.1636
13.9394,1737.3019
13.9504,1770.5615
13.9614,1789.0677
13.9724,1767.2642
13.9834,1831.8199
13.9944,1772.332
14.0054,1819.8585
14.0164,1830.8097
14.0274,1813.2625
14.0384,1820.591
14.0494,1787.1325
14.0604,1751.5887
14.0714,1826.232
14.0824,1800.6062
14.0934,1822.2568
14.1044,1858.9749
14.1154,1870.2843
14.1264,1904.9676
14.1374,1878.7934
14.1484,1856.6402
14.1594,1861.6961
14.1704,1829.3933
14.1814,1856.6029
14.1924,1883.5
14.2034,1856.0943
14.2144,1852.0654
14.2254,1942.4575
14.2364,1973.1075
14.2474,1928.525
14.2584,1945.5399
14.2694,1953.1071
14.2804,1899.1252
14.2914,1861.0619
14.3024,1866.5895
14.3134,1871.0944
14.3244,1864.82
14.3354,1938.5351
14.3464,1909.4482
14.3574,1906.1122
14.3684,1906.7635
14.3794,1862.7167
14.3904,1845.5575
14.4014,1908.0837
14.4124,1964.562
14.4234,1936.5781
14.4344,1941.7193
14.4454,1902.3863
14.4564,1858.2005
14.4674,1771.694
14.4784,1842.333
14.4894,1808.7609
14.5004,1811.5064
14.5114,1828.5595
14.5224,1844.031
14.5334,1801.0677
14.5444,1832.5193
14.5554,1848.7729
14.5664,1834.3957
14.5774,1833.9302
14.5884,1848.1372
14.5994,1769.754
14.6104,1798.8801
14.6214,1687.3744
14.6324,1725.6574
14.6434,1621.3305
14.6544,1702.6959
14.6654,1566.5076
14.6764,1685.7552
14.6874,1682.1771
14.6984,1722.0462
14.7094,1731.64
14.7204,1670.6992
14.7314,1695.1366
14.7424,1671.7183
14.7534,1678.9114
14.7644,1623.6429
14.7754,1547.6628
14.7864,1588.2744
14.7974,1612.2164
14.8084,1640.1627
14.8194,1605.3716
14.8304,1567
14.8414,1580.9608
14.8524,1624.2507
14.8634,1604.7541
14.8744,1570.2501
14.8854,1514.2124
14.8964,1517.6813
14.9074,1540.1262
14.9184,1639.6179
14.9294,1599.3244
14.9404,1580.6937
14.9514,1577.9055
14.9624,1563.3245
14.9734,1549.3853
14.9844,1562.6595
14.9954,1634.055
15.0064,1615.8569
15.0174,1573.6754
15.0284,1502.3868
15.0394,1508.7308
15.0504,1584.6048
15.0614,1581.1464
15.0724,1549.2493
15.0834,1557
15.0944,1536.1774
15.1054,1512.3589
15.1164,1567.5695
15.1274,1598.8446
15.1384,1564.175
15.1494,1581.3128
15.1604,1607.9081
15.1714,1537.5435
15.1824,1541.3453
15.1934,1551.879
15.2044,1543.3078
15.2154,1555.3599
15.2264,1572.4519
15.2374,1621.0621
15.2484,1550.2077
15.2594,1539.535
15.2704,1512.433
15.2814,1518.6549
15.2924,1541.853
15.3034,1547.7414
15.3144,1567.5959
15.3254,1548.7226
15.3364,1567.4612
15.3474,1534.6813
15.3584,1573.7769
15.3694,1500.4098
15.3804,1574.5002
15.3914,1541.9369
15.4024,1588.2332
15.4134,1542.6842
15.4244,1474.3912
15.4354,1558.4447
15.4464,1531.2492
15.4574,1438.3931
15.4684,1487.3974
15.4794,1470.4247
15.4904,1497.5104
15.5014,1470.1209
15.5124,1478.7493
15.5234,1504.6677
15.5344,1574.9657
15.5454,1554.8733
15.5564,1625.0366
15.5674,1505.946
15.5784,1528.6149
15.5894,1485.2921
15.6004,1532.5569
15.6114,1489.941
15.6224,1500.0978
15.6334,1499.5683
15.6444,1492.0399
15.6554,1522.3471
15.6664,1516.8877
15.6774,1447.5842
15.6884,1517.2601
15.6994,1537.7808
15.7104,1548.2108
15.7214,1502.7492
15.7324,1496.234
15.7434,1485.8053
15.7544,1472.736
15.7654,1481.6982
15.7764,1508.2877
15.7874,1504.0126
15.7984,1472.4496
15.8094,1546.0679
15.8204,1550.7665
15.8314,1553.6215
15.8424,1538.4143
15.8534,1499.9333
15.8644,1533.4223
15.8754,1537.3717
15.8864,1549.4287
15.8974,1543.7591
15.9084,1517.7123
15.9194,1484.1327
15.9304,1492.2597
15.9414,1495.3716
15.9524,1440.7412
15.9634,1448.2382
15.9744,1484.3539
15.9854,1485.1446
15.9964,1496.7168
16.0074,1530.2421
16.0184,1507.4845
16.0294,1489.7091
16.0404,1489.8849
16.0514,1440.1405
16.0624,1481.485
16.0734,1502.1327
16.0844,1490.6844
16.0954,1470.4512
16.1064,1503.6211
16.1174,1472.0667
16.1284,1476.151
16.1394,1514.2656
16.1504,1484.7949
16.1614,1491.5035
16.1724,1514.823
16.1834,1469.2722
16.1944,1402.0967
16.2054,1434.4515
16.2164,1441.0998
16.2274,1453.4769
16.2384,1492.5901
16.2494,1414.1728
16.2604,1414.7002
16.2714,1390.3716
16.2824,1460.0125
16.2934,1427.5348
16.3044,1451.6756
16.3154,1446.5339
16.3264,1432.6175
16.3374,1404.0973
16.3484,1512.813
16.3594,1533.2134
16.3704,1416.3626
16.3814,1451.5124
16.3924,1406.0894
16.4034,1489.4043
16.4144,1448.757
16.4254,1429.0934
16.4364,1387.509
16.4474,1457.5144
16.4584,1529.9959
16.4694,1439.0885
16.4804,1439.9823
16.4914,1420.2467
16.5024,1388.1919
16.5134,1435.8837
16.5244,1347.5555
16.5354,1511.3481
16.5464,1486.6227
16.5574,1405.9961
16.5684,1413.8185
16.5794,1403.0356
16.5904,1440.748
16.6014,1348.7789
16.6124,1396.121
16.6234,1421.2979
16.6344,1420.5132
16.6454,1398.1455
16.6564,1381.6956
16.6674,1393.1595
16.6784,1460.2778
16.6894,1460.1298
16.7004,1459.2094
16.7114,1445.0087
16.7224,1412.9042
16.7334,1422.6608
16.7444,1427.9759
16.7554,1445.9125
16.7664,1433.553
16.7774,1386.0088
16.7884,1382.2124
16.7994,1395.0649
16.8104,1412.4593
16.8214,1421.0609
16.8324,1406.1003
16.8434,1411.47
16.8544,1403.818
16.8654,1383.1062
16.8764,1383.9902
16.8874,1387.4661
16.8984,1383.9056
16.9094,1420.5842
16.9204,1467.1564
16.9314,1478
16.9424,1456.2349
16.9534,1412.5024
16.9644,1411.5178
16.9754,1451.4337
16.9864,1497.6088
16.9974,1477.581
17.0084,1424.3209
17.0194,1389.2123
17.0304,1410.1992
17.0414,1416.7994
17.0524,1394.9124
17.0634,1381.3363
17.0744,1337.225
17.0854,1364.2204
17.0964,1338.289
17.1074,1386.0848
17.1184,1369.8372
17.1294,1395.7405
17.1404,1406.794
17.1514,1411.8378
17.1624,1413
17.1734,1440.419
17.1844,1365.0558
17.1954,1369.6756
17.2064,1379.0743
17.2174,1394.9607
17.2284,1345.2447
17.2394,1391.4682
17.2504,1426.3413
17.2614,1407.6283
17.2724,1448.3674
17.2834,1426.2015
17.2944,1384.4247
17.3054,1329.1896
17.3164,1471.6459
17.3274,1295.3159
17.3384,1401.0244
17.3494,1339.4869
17.3604,1392.9558
17.3714,1415.2183
17.3824,1404.5424
17.3934,1452.7787
17.4044,1408.5716
17.4154,1361.4063
17.4264,1425.7785
17.4374,1348.8948
17.4484,1368.1711
17.4594,1361.646
17.4704,1362.7877
17.4814,1402.0491
17.4924,1383.7405
17.5034,1415.0215
17.5144,1378.2046
17.5254,1391.5485
17.5364,1345
17.5474,1355.1997
17.5584,1377.6459
17.5694,1337.052
17.5804,1298.8555
17.5914,1334.7701
17.6024,1381.1716
17.6134,1354.3931
17.6244,1325.164
17.6354,1381.6449
17.6464,1366.9696
17.6574,1398.2566
17.6684,1402.3756
17.6794,1384.8464
17.6904,1345.4086
17.7014,1343.8958
17.7124,1346.1977
17.7234,1322.2653
17.7344,1312.3787
17.7454,1328.1395
17.7564,1365.3941
17.7674,1410.6784
17.7784,1377.7797
17.7894,1377.5753
17.8004,1392.5315
17.8114,1367.9871
17.8224,1354.2286
17.8334,1387.8487
17.8444,1369.517
17.8554,1372.4249
17.8664,1337.7151
17.8774,1303.47
17.8884,1332.0812
17.8994,1308.1906
17.9104,1282.7281
17.9214,1396.3338
17.9324,1335.8609
17.9434,1321.4751
17.9544,1296.3804
17.9654,1276.5683
17.9764,1306.5812
17.9874,1324.6637
17.9984,1327
18.0094,1354.5399
18.0204,1322.581
18.0314,1366.2706
18.0424,1409.0655
18.0534,1375.2919
18.0644,1323.0245
18.0754,1285.4827
18.0864,1364.2525
18.0974,1310.7972
18.1084,1375.3031
18.1194,1323.8464
18.1304,1333.1038
18.1414,1268.3882
18.1524,1335.9825
18.1634,1255.7893
18.1744,1276.5822
18.1854,1355.894
18.1964,1334.6514
18.2074,1306.3854
18.2184,1290.0236
18.2294,1310.2009
18.2404,1417.3193
18.2514,1304.6726
18.2624,1321.0446
18.2734,1288.0583
18.2844,1376.134
18.2954,1289.5222
18.3064,1306
18.3174,1309.711
18.3284,1344.4932
18.3394,1367.5052
18.3504,1312.863
18.3614,1345.5594
18.3724,1315.5537
18.3834,1364.9263
18.3944,1371.5589
18.4054,1347.2822
18.4164,1335.5617
18.4274,1272.5144
18.4384,1296.9139
18.4494,1295.2745
18.4604,1330.872
18.4714,1269.4061
18.4824,1294.4264
18.4934,1333.1562
18.5044,1316.0876
18.5154,1305.9879
18.5264,1282.0028
18.5374,1352.9271
18.5484,1326.4249
18.5594,1345.409
18.5704,1345.5389
18.5814,1341.9645
18.5924,1288.8445
18.6034,1252.1396
18.6144,1268.9884
18.6254,1304.7335
18.6364,1299.6721
18.6474,1277.407
18.6584,1300.1153
18.6694,1323.3893
18.6804,1322.6196
18.6914,1314.0126
18.7024,1298.7867
18.7134,1330.6166
18.7244,1303.3228
18.7354,1309.4869
18.7464,1354.7125
18.7574,1285.6958
18.7684,1302.2781
18.7794,1307.227
18.7904,1301.2169
18.8014,1296.701
18.8124,1308.2051
18.8234,1330.8162
18.8344,1376.1491
18.8454,1310.805
18.8564,1304.1678
18.8674,1281.9861
18.8784,1308.7435
18.8894,1317.0137
18.9004,1288.3799
18.9114,1301.6402
18.9224,1344.1171
18.9334,1361.9745
18.9444,1351.8539
18.9554,1272.5514
18.9664,1306.0592
18.9774,1276.2093
18.9884,1281.0246
18.9994,1327.4308
19.0104,1378.1742
19.0214,1334.7324
19.0324,1309.0226
19.0434,1358.54
19.0544,1322.8961
19.0654,1268.0284
19.0764,1329.1344
19.0874,1269.9507
19.0984,1342.6177
19.1094,1295.289
19.1204,1301.821
19.1314,1275.2706
19.1424,1340.0795
19.1534,1282.423
19.1644,1335.3333
19.1754,1321.9645
19.1864,1294.4808
19.1974,1308.3188
19.2084,1380.2608
19.2194,1288.224
19.2304,1231.6978
19.2414,1293.0353
19.2524,1269
19.2634,1264.6794
19.2744,1254.0651
19.2854,1298.8957
19.2964,1270.7664
19.3074,1266.9529
19.3184,1293.1948
19.3294,1298.927
19.3404,1237.3231
19.3514,1277.3414
19.3624,1310.8657
19.3734,1288.7345
19.3844,1294.5069
19.3954,1290.4719
19.4064,1277.5856
19.4174,1308.6777
19.4284,1304.8723
19.4394,1229.0532
19.4504,1291.2608
19.4614,1308.5828
19.4724,1284.1757
19.4834,1324.936
19.4944,1305.6357
19.5054,1316.6461
19.5164,1313.2722
19.5274,1287.6844
19.5384,1266.8051
19.5494,1285.8892
19.5604,1274.773
19.5714,1239.7023
19.5824,1290.769
19.5934,1305.9302
19.6044,1283.112
19.6154,1276.1898
19.6264,1310.7302
19.6374,1303.1326
19.6484,1270.88
19.6594,1262.6087
19.6704,1274.798
19.6814,1291.4986
19.6924,1329.2764
19.7034,1330.5545
19.7144,1334.062
19.7254,1267.6654
19.7364,1293.7436
19.7474,1288.1857
19.7584,1229.6857
19.7694,1294.667
19.7804,1289.2949
19.7914,1280.7807
19.8024,1282
19.8134,1231.2525
19.8244,1239.2046
19.8354,1278.8231
19.8464,1286.1824
19.8574,1292.6392
19.8684,1272.1032
19.8794,1278.2537
19.8904,1299.0689
19.9014,1299.3628
19.9124,1349.8069
19.9234,1311.7216
19.9344,1284.1017
19.9454,1283.8564
19.9564,1299.9887
19.9674,1295.2832
19.9784,1271.8377
19.9894,1255.3618
20.0004,1290.6284
20.0114,1245.063
20.0224,1277.0285
20.0334,1279.8496
20.0444,1309.757
20.0554,1283.0907
20.0664,1355.8288
20.0774,1310.1357
20.0884,1314.4073
20.0994,1219.1122
20.1104,1256.2252
20.1214,1261.7464
20.1324,1276.3405
20.1434,1211.3699
20.1544,1255.1179
20.1654,1239.6992
20.1764,1262.1863
20.1874,1276.9038
20.1984,1324.3524
20.2094,1279.2771
20.2204,1241.123
20.2314,1252.8229
20.2424,1228.2601
20.2534,1227.6381
20.2644,1242.2185
20.2754,1286.5152
20.2864,1291.9681
20.2974,1317.7877
20.3084,1324.3249
20.3194,1300.8858
20.3304,1266.8893
20.3414,1247.3707
20.3524,1277.4904
20.3634,1308.7934
20.3744,1297.8575
20.3854,1286.0902
20.3964,1259.7184
20.4074,1281.2222
20.4184,1266.6681
20.4294,1268.8851
20.4404,1288
20.4514,1254.928
20.4624,1236.683
20.4734,1308.4831
20.4844,1322.2746
20.4954,1265.2034
20.5064,1239.8943
20.5174,1255.9922
20.5284,1272
20.5394,1233.5239
20.5504,1260.7766
20.5614,1300.3157
20.5724,1317.4627
20.5834,1270.2239
20.5944,1272.9766
20.6054,1300.9853
20.6164,1332.4411
20.6274,1283.5661
20.6384,1347.3327
20.6494,1300.2179
20.6604,1280.5428
20.6714,1334.8026
20.6824,1291.1104
20.6934,1351.2215
20.7044,1375.2237
20.7154,1298.5061
20.7264,1319.6462
20.7374,1303.1651
20.7484,1239.2171
20.7594,1279.7789
20.7704,1327.4023
20.7814,1252.0774
20.7924,1322.0902
20.8034,1294.9753
20.8144,1223.458
20.8254,1283.4515
20.8364,1254.8957
20.8474,1253.8722
20.8584,1266.3289
20.8694,1297.7415
20.8804,1225.0548
20.8914,1305.7613
20.9024,1302.0123
20.9134,1254.9541
20.9244,1348.389
20.9354,1236.4074
20.9464,1328.9639
20.9574,1269.124
20.9684,1301.5742
20.9794,1284.8388
20.9904,1303.8495
21.0014,1300.6797
21.0124,1359.3022
21.0234,1324.6018
21.0344,1317.3588
21.0454,1283.3922
21.0564,1249.6962
21.0674,1271.2795
21.0784,1333.3304
21.0894,1341.761
21.1004,1330.4365
21.1114,1297.0638
21.1224,1266.4337
21.1334,1298.2874
21.1444,1347.5642
21.1554,1313.9413
21.1664,1352.8424
21.1774,1304.8025
21.1884,1335.9027
21.1994,1330.7767
21.2104,1315.7586
21.2214,1322.646
21.2324,1315.0407
21.2434,1303
21.2544,1308.472
21.2654,1320.2252
21.2764,1345.772
21.2874,1370.295
21.2984,1370.1603
21.3094,1362.6213
21.3204,1393.7127
21.3314,1404.7411
21.3424,1368.6756
21.3534,1362.4364
21.3644,1350.2478
21.3754,1342.6921
21.3864,1293.5455
21.3974,1302.545
21.4084,1285.5877
21.4194,1281.363
21.4304,1298.9498
21.4414,1311.3944
21.4524,1289.9467
21.4634,1290.2292
21.4744,1288.9931
21.4854,1303.714
21.4964,1336.4991
21.5074,1326.1199
21.5184,1308.4557
21.5294,1307.0944
21.5404,1273.8996
21.5514,1257.1091
21.5624,1258.205
21.5734,1262.7365
21.5844,1213.1075
21.5954,1256.4348
21.6064,1290.4676
21.6174,1299.7788
21.6284,1284.0162
21.6394,1243.053
21.6504,1228.3333
21.6614,1244.7582
21.6724,1328.6443
21.6834,1287.1768
21.6944,1330.185
21.7054,1311.051
21.7164,1259.0175
21.7274,1343.1793
21.7384,1259.6968
21.7494,1220.9055
21.7604,1259.1624
21.7714,1292.9618
21.7824,1277.3259
21.7934,1265.0826
21.8044,1288.8268
21.8154,1256.8938
21.8264,1252.3497
21.8374,1294.3086
21.8484,1256.9824
21.8594,1275.5379
21.8704,1297.1583
21.8814,1303.3895
21.8924,1341.9168
21.9034,1296.7237
21.9144,1293.9294
21.9254,1336.3598
21.9364,1313.3516
21.9474,1331.9319
21.9584,1286.4717
21.9694,1339.5546
21.9804,1362.2331
21.9914,1339.8451
22.0024,1220.9726
22.0134,1271.4869
22.0244,1321.4877
22.0354,1321.6422
22.0464,1322.5897
22.0574,1293.7771
22.0684,1336.9762
22.0794,1311.2598
22.0904,1312.8773
22.1014,1255.8281
22.1124,1266.5706
22.1234,1251.9215
22.1344,1296.0881
22.1454,1313.7256
22.1564,1303.386
22.1674,1279.1738
22.1784,1235.4233
22.1894,1221.1897
22.2004,1219.9156
22.2114,1231.4159
22.2224,1229.8668
22.2334,1256.0581
22.2444,1255.0943
22.2554,1263.9579
22.2664,1256.1802
22.2774,1214.1858
22.2884,1213.3781
22.2994,1255.5105
22.3104,1259.7388
22.3214,1226.6735
22.3324,1244.1737
22.3434,1245.7698
22.3544,1255.6987
22.3654,1260.1484
22.3764,1291.7391
22.3874,1252.8847
22.3984,1235.3826
22.4094,1284.248
22.4204,1298.4503
22.4314,1305.884
22.4424,1330.8305
22.4534,1256.4441
22.4644,1230.4572
22.4754,1241.8172
22.4864,1235.7905
22.4974,1240.0177
22.5084,1287.9382
22.5194,1312.0649
22.5304,1282.3352
22.5414,1296.5517
22.5524,1271.5579
22.5634,1258.3186
22.5744,1230.1607
22.5854,1241.8054
22.5964,1291.1895
22.6074,1259.0884
22.6184,1303.4923
22.6294,1216.2032
22.6404,1240.9441
22.6514,1325.8085
22.6624,1265.4044
22.6734,1222.9674
22.6844,1355.4739
22.6954,1260.0237
22.7064,1283.615
22.7174,1254.9489
22.7284,1253.9086
22.7394,1276.5988
22.7504,1267.876
22.7614,1253.6904
22.7724,1289.1756
22.7834,1307.0343
22.7944,1265.4598
22.8054,1297.4603
22.8164,1330.9066
22.8274,1337.3578
22.8384,1309.0193
22.8494,1316.3282
22.8604,1259.8969
22.8714,1292.2801
22.8824,1267.5192
22.8934,1297.0003
22.9044,1358.0884
22.9154,1347.017
22.9264,1388.2678
22.9374,1366.9117
22.9484,1395.426
22.9594,1372.9334
22.9704,1437.9248
22.9814,1415.9585
22.9924,1381.3094
23.0034,1436.0887
23.0144,1439.3979
23.0254,1399.9472
23.0364,1471.6285
23.0474,1483.7078
23.0584,1446.5275
23.0694,1484.4015
23.0804,1530.0466
23.0914,1505.8957
23.1024,1492.4291
23.1134,1495.5094
23.1244,1513.9214
23.1354,1516.4926
23.1464,1529.623
23.1574,1545.1033
23.1684,1523.1134
23.1794,1553.5539
23.1904,1567.5254
23.2014,1528.2742
23.2124,1519.8933
23.2234,1559.8213
23.2344,1558.8538
23.2454,1557.6196
23.2564,1525.3075
23.2674,1485.2772
23.2784,1505.7061
23.2894,1537.6176
23.3004,1509.4423
23.3114,1492.6893
23.3224,1490.1937
23.3334,1511.1299
23.3444,1488.049
23.3554,1477.4769
23.3664,1464.4867
23.3774,1532.488
23.3884,1543.3702
23.3994,1480.1413
23.4104,1493.5965
23.4214,1491.2536
23.4324,1545.8896
23.4434,1506.1198
23.4544,1520.623
23.4654,1509.4955
23.4764,1542.8197
23.4874,1493.0716
23.4984,1471.6283
23.5094,1439.0422
23.5204,1484.9092
23.5314,1521.7287
23.5424,1524
23.5534,1482.7334
23.5644,1493.6357
23.5754,1526.4809
23.5864,1495.11
23.5974,1567.3626
23.6084,1496.592
23.6194,1522.8632
23.6304,1490.503
23.6414,1508.0201
23.6524,1613.0709
23.6634,1493.761
23.6744,1486.7372
23.6854,1551.7503
23.6964,1555.0132
23.7074,1551.4469
23.7184,1658.0183
23.7294,1564.1533
23.7404,1530.0741
23.7514,1506.9216
23.7624,1560.451
23.7734,1507.8667
23.7844,1590.4963
23.7954,1543.8407
23.8064,1553.3934
23.8174,1553.3037
23.8284,1525.2036
23.8394,1558.5745
23.8504,1607.7142
23.8614,1555.3774
23.8724,1528.9097
23.8834,1553.4169
23.8944,1530.0751
23.9054,1537.3582
23.9164,1571.4477
23.9274,1592.148
23.9384,1643.5542
23.9494,1578.826
23.9604,1609.6241
23.9714,1657.9362
23.9824,1645.9501
23.9934,1616.2833
24.0044,1653.1811
24.0154,1681.9037
24.0264,1685.4646
24.0374,1774.5866
24.0484,1847.642
24.0594,1873.3808
24.0704,1991.2173
24.0814,2082.8871
24.0924,2130.3453
24.1034,2315.3618
24.1144,2495.9994
24.1254,2652.1776
24.1364,2869.7786
24.1474,3014.8597
24.1584,3297.8288
24.1694,3684.6434
24.1804,4117.4269
24.1914,4436.107
24.2024,4948.1472
24.2134,5660.1038
24.2244,6743.5544
24.2354,7853.099
24.2464,9306.9618
24.2574,10783.2911
24.2684,12054.6045
24.2794,13475.1369
24.2904,14020.1116
24.3014,14214.0271
24.3124,13795.0324
24.3234,12287.1533
24.3344,10689.852
24.3454,8970.4541
24.3564,7670.2495
24.3674,6334.9746
24.3784,5145.373
24.3894,3930.1727
24.4004,3114.2702
24.4114,2475.4344
24.4224,2102.0533
24.4334,2045.9389
24.4444,1913.1288
24.4554,1823.7903
24.4664,1866.0729
24.4774,1762.8256
24.4884,1773.8893
24.4994,1748.8662
24.5104,1739.3754
24.5214,1684.0501
24.5324,1658.9452
24.5434,1608.1624
24.5544,1652.3746
24.5654,1653.5038
24.5764,1726.6692
24.5874,1621.8762
24.5984,1634.8316
24.6094,1567.9507
24.6204,1533.1251
24.6314,1494.7496
24.6424,1570.1158
24.6534,1537.9708
24.6644,1575.4785
24.6754,1484.7197
24.6864,1480.2257
24.6974,1490.7563
24.7084,1525.2532
24.7194,1544.1889
24.7304,1543.0665
24.7414,1450.4658
24.7524,1409.5754
24.7634,1427.4669
24.7744,1413.0159
24.7854,1422.5485
24.7964,1415.1718
24.8074,1447.7522
24.8184,1440.5074
24.8294,1452.2617
24.8404,1447.9535
24.8514,1412.7405
24.8624,1421.8446
24.8734,1424.7385
24.8844,1391.6944
24.8954,1370.9599
24.9064,1403.1864
24.9174,1402.2271
24.9284,1398.9686
24.9394,1406.5585
24.9504,1399.5869
24.9614,1385.7365
24.9724,1361.8263
24.9834,1358.3806
24.9944,1398.6305
25.0054,1430.8958
25.0164,1395.2033
25.0274,1435.1627
25.0384,1382.201
25.0494,1353.5636
25.0604,1344.9703
25.0714,1333.2793
25.0824,1353.7081
25.0934,1373.2065
25.1044,1350.2909
25.1154,1361.9706
25.1264,1361.2404
25.1374,1392.0208
25.1484,1368.6473
25.1594,1365.8044
25.1704,1354.437
25.1814,1293.1502
25.1924,1371.9267
25.2034,1335.9456
25.2144,1329.1564
25.2254,1307.818
25.2364,1313.9229
25.2474,1365.4456
25.2584,1308.275
25.2694,1298
25.2804,1342.4692
25.2914,1330.8682
25.3024,1284.2157
25.3134,1358.7319
25.3244,1324.6424
25.3354,1375.247
25.3464,1316.3596
25.3574,1393.9846
25.3684,1388.0983
25.3794,1407.9998
25.3904,1353.4549
25.4014,1388.4511
25.4124,1327.8113
25.4234,1348.4592
25.4344,1342.3636
25.4454,1403.1
25.4564,1330.8069
25.4674,1354.4249
25.4784,1383.1633
25.4894,1294.5145
25.5004,1344.2449
25.5114,1359.3951
25.5224,1334.0306
25.5334,1365.1493
25.5444,1332.2064
25.5554,1314.1466
25.5664,1334.5223
25.5774,1355.0353
25.5884,1358.5271
25.5994,1441.1049
25.6104,1369.2565
25.6214,1360.2499
25.6324,1380.1689
25.6434,1357.9943
25.6544,1415.4422
25.6654,1405.8166
25.6764,1318.6549
25.6874,1322.2792
25.6984,1328.624
25.7094,1350.4248
25.7204,1342.3779
25.7314,1320.5399
25.7424,1326
25.7534,1356.0888
25.7644,1370.4678
25.7754,1325.5928
25.7864,1311.3618
25.7974,1309.3353
25.8084,1291.8671
25.8194,1255.7423
25.8304,1278.7953
25.8414,1323.2272
25.8524,1310.4448
25.8634,1309.2243
25.8744,1326.3186
25.8854,1336.9155
25.8964,1340.1116
25.9074,1327.9704
25.9184,1318.5909
25.9294,1331.7494
25.9404,1338.4926
25.9514,1295.456
25.9624,1320.2058
25.9734,1325.4247
25.9844,1340.6884
25.9954,1305.5071
26.0064,1317.6285
26.0174,1330.5742
26.0284,1317.672
26.0394,1357.248
26.0504,1316.7682
26.0614,1292.6657
26.0724,1284.8053
26.0834,1266.4807
26.0944,1282.772
26.1054,1332.6167
26.1164,1360.2936
26.1274,1313.8523
26.1384,1272.6208
26.1494,1230.8641
26.1604,1266.0154
26.1714,1259.6106
26.1824,1278.6368
26.1934,1256.4424
26.2044,1195.0027
26.2154,1304.8972
26.2264,1272.3042
26.2374,1288.2154
26.2484,1257.9281
26.2594,1257.9833
26.2704,1211.2078
26.2814,1270.9843
26.2924,1268.254
26.3034,1232.4868
26.3144,1249.3266
26.3254,1297.8023
26.3364,1280.0798
26.3474,1307.7552
26.3584,1303.5914
26.3694,1288.5132
26.3804,1281.6875
26.3914,1313.7991
26.4024,1248.8614
26.4134,1269.7287
26.4244,1289.497
26.4354,1287.1799
26.4464,1292.037
26.4574,1306.7502
26.4684,1275.4509
26.4794,1199.2695
26.4904,1223.2764
26.5014,1242.2389
26.5124,1248.7774
26.5234,1251.0164
26.5344,1212.3056
26.5454,1268.8114
26.5564,1272.9943
26.5674,1244.6109
26.5784,1271.6738
26.5894,1254.1929
26.6004,1265.4202
26.6114,1250.3237
26.6224,1250.9997
26.6334,1234.2805
26.6444,1260.1149
26.6554,1252.1987
26.6664,1244.5927
26.6774,1212
26.6884,1224.9539
26.6994,1224.3273
26.7104,1223.0783
26.7214,1227.5122
26.7324,1247.2436
26.7434,1295.2951
26.7544,1308.3181
26.7654,1295.0265
26.7764,1240.0007
26.7874,1191.9616
26.7984,1276.6879
26.8094,1296.3684
26.8204,1269.8811
26.8314,1244.991
26.8424,1272.43
26.8534,1304.47
26.8644,1278.991
26.8754,1249.8967
26.8864,1221.7998
26.8974,1271.8705
26.9084,1250.5332
26.9194,1268.4791
26.9304,1214.094
26.9414,1269.496
26.9524,1254.573
26.9634,1230.2212
26.9744,1227.7822
26.9854,1276.4644
26.9964,1289
27.0074,1293.9145
27.0184,1274.2157
27.0294,1241.3155
27.0404,1294.2048
27.0514,1280.5574
27.0624,1283.1637
27.0734,1225.0735
27.0844,1284.9787
27.0954,1303.9263
27.1064,1305.9297
27.1174,1237.2347
27.1284,1249.2228
27.1394,1215.2034
27.1504,1270.7741
27.1614,1283.8939
27.1724,1285.714
27.1834,1203.5193
27.1944,1235.6076
27.2054,1224.2578
27.2164,1275.6852
27.2274,1230.8848
27.2384,1193.5648
27.2494,1275.2307
27.2604,1191.2922
27.2714,1230.6998
27.2824,1181.3286
27.2934,1233.2478
27.3044,1237.5284
27.3154,1213.5928
27.3264,1206.9723
27.3374,1286.6953
27.3484,1298.5957
27.3594,1256.5043
27.3704,1242.7501
27.3814,1281.9613
27.3924,1223.2141
27.4034,1262.354
27.4144,1288.4433
27.4254,1303.9464
27.4364,1244.1415
27.4474,1305.9891
27.4584,1271.7874
27.4694,1248.3708
27.4804,1275.2514
27.4914,1259.8933
27.5024,1213.2855
27.5134,1241.7766
27.5244,1216.1579
27.5354,1236.2715
27.5464,1202.175
27.5574,1189.974
27.5684,1255.406
27.5794,1239.6254
27.5904,1229.0604
27.6014,1241.2086
27.6124,1235.7898
27.6234,1198.3893
27.6344,1198.795
27.6454,1203.8722
27.6564,1200.3672
27.6674,1193.9911
27.6784,1235.5067
27.6894,1196.1971
27.7004,1209.4626
27.7114,1228.3489
27.7224,1194.314
27.7334,1209.2116
27.7444,1203.4374
27.7554,1178.9026
27.7664,1183.3418
27.7774,1219.5754
27.7884,1224.3156
27.7994,1243.9372
27.8104,1244.6878
27.8214,1231.528
27.8324,1224.2955
27.8434,1218.4808
27.8544,1228.4824
27.8654,1217.9999
27.8764,1232.9618
27.8874,1305.3986
27.8984,1281.2672
27.9094,1281.0964
27.9204,1271.2507
27.9314,1234.0873
27.9424,1288.4673
27.9534,1284.8583
27.9644,1244.7987
27.9754,1290.4388
27.9864,1351.692
27.9974,1324.6154
28.0084,1332.3132
28.0194,1377.6433
28.0304,1412.713
28.0414,1477.3385
28.0524,1444.4645
28.0634,1584.8619
28.0744,1561.5271
28.0854,1694.6696
28.0964,1679.636
28.1074,1643.2409
28.1184,1641.9524
28.1294,1537.8854
28.1404,1402.7057
28.1514,1332.0795
28.1624,1300.6144
28.1734,1267.1948
28.1844,1286.624
28.1954,1303.4069
28.2064,1267.5409
28.2174,1284.4219
28.2284,1285.7789
28.2394,1232.4801
28.2504,1287.4247
28.2614,1275.7268
28.2724,1291.349
28.2834,1287.7524
28.2944,1328.6284
28.3054,1340.6529
28.3164,1321.224
28.3274,1268.6517
28.3384,1242.9819
28.3494,1261.8762
28.3604,1266.7869
28.3714,1260.0809
28.3824,1290.0942
28.3934,1248.116
28.4044,1201.8959
28.4154,1176.3484
28.4264,1234.8786
28.4374,1209.979
28.4484,1213.7926
28.4594,1283.117
28.4704,1245.243
28.4814,1203.3304
28.4924,1243.313
28.5034,1258.4855
28.5144,1189.7519
28.5254,1208.7989
28.5364,1258.087
28.5474,1232.6459
28.5584,1209.8225
28.5694,1172.3931
28.5804,1231.6216
28.5914,1248.8256
28.6024,1251.6718
28.6134,1259.8878
28.6244,1229.7206
28.6354,1241.8881
28.6464,1260.5531
28.6574,1213.9574
28.6684,1263.2532
28.6794,1274.9438
28.6904,1275.1938
28.7014,1241.5573
28.7124,1228.1726
28.7234,1247.4121
28.7344,1269.7243
28.7454,1249.1237
28.7564,1271.1609
28.7674,1244.6458
28.7784,1270.9073
28.7894,1251.6419
28.8004,1241.7099
28.8114,1310.2894
28.8224,1312.9877
28.8334,1270.6085
28.8444,1277.0753
28.8554,1315.243
28.8664,1289.5269
28.8774,1327.7937
28.8884,1300.6911
28.8994,1311.064
28.9104,1363.9988
28.9214,1329.6488
28.9324,1415.3013
28.9434,1371.8317
28.9544,1298.3945
28.9654,1350.876
28.9764,1333.4219
28.9874,1354.4336
28.9984,1335.6434
29.0094,1308.2981
29.0204,1347.8201
29.0314,1357.3873
29.0424,1331.8448
29.0534,1265.1565
29.0644,1287.2997
29.0754,1255.6343
29.0864,1281.8472
29.0974,1290.3755
29.1084,1275.6667
29.1194,1281.3374
29.1304,1303.5248
29.1414,1262.7347
29.1524,1289.115
29.1634,1284.3532
29.1744,1324.655
29.1854,1336.8375
29.1964,1292.53
29.2074,1282.9084
29.2184,1261.5291
29.2294,1280.3019
29.2404,1273.1459
29.2514,1262.8555
29.2624,1288.1786
29.2734,1300.522
29.2844,1300.8031
29.2954,1289.9307
29.3064,1232.801
29.3174,1255.4012
29.3284,1280.0371
29.3394,1295.5574
29.3504,1282.119
29.3614,1272.9241
29.3724,1286.6242
29.3834,1278.6574
29.3944,1263.4128
29.4054,1274.5868
29.4164,1306.8093
29.4274,1325.1973
29.4384,1262.8361
29.4494,1294.674
29.4604,1326.1204
29.4714,1307.4159
29.4824,1267.0951
29.4934,1254.3403
29.5044,1223.0145
29.5154,1233.4221
29.5264,1248.029
29.5374,1252.3983
29.5484,1277.4077
29.5594,1323.542
29.5704,1266.5644
29.5814,1275.1015
29.5924,1290.4626
29.6034,1293.3186
29.6144,1256.9329
29.6254,1266.8192
29.6364,1290.8895
29.6474,1254.4776
29.6584,1176.3772
29.6694,1244.4931
29.6804,1196.0891
29.6914,1196.9981
29.7024,1238.3675
29.7134,1216.5062
29.7244,1234.0842
29.7354,1225.8583
29.7464,1219.6022
29.7574,1268.9432
29.7684,1303.9323
29.7794,1279.5072
29.7904,1278.8574
29.8014,1257.3568
29.8124,1287.4588
29.8234,1219.4776
29.8344,1188.6415
29.8454,1237.5086
29.8564,1332.6183
29.8674,1177.9557
29.8784,1177.5692
29.8894,1264.9257
29.9004,1145.7497
29.9114,1224.8824
29.9224,1111.1822
29.9334,1174.6195
29.9444,1180.7984
29.9554,1177.4169
29.9664,1164.1224
29.9774,1163.0936
29.9884,1191.2511
29.9994,1170.649
30.0104,1171.5565
30.0214,1160.7473
30.0324,1152.0528
30.0434,1109.7081
30.0544,1120.7097
30.0654,1104.8234
30.0764,1158.5721
30.0874,1108.4992
30.0984,1081.3765
30.1094,1159.836
30.1204,1170.3429
30.1314,1128.8318
30.1424,1113.051
30.1534,1119.7546
30.1644,1176.9203
30.1754,1176.9479
30.1864,1185.4848
30.1974,1183.0147
30.2084,1151.2534
30.2194,1141.5244
30.2304,1174.115
30.2414,1172.0571
30.2524,1173.7708
30.2634,1192.0622
30.2744,1287.7941
30.2854,1331.6094
30.2964,1317.2937
30.3074,1304.6162
30.3184,1292.1167
30.3294,1296.3185
30.3404,1308.8173
30.3514,1335.7778
30.3624,1330.0751
30.3734,1310.5574
30.3844,1310.7016
30.3954,1360.1449
30.4064,1363.0854
30.4174,1335.0432
30.4284,1348.5311
30.4394,1378.9628
30.4504,1390.9985
30.4614,1411.6756
30.4724,1454.8473
30.4834,1485.4672
30.4944,1509.8836
30.5054,1554.1094
30.5164,1565.7802
30.5274,1540.1768
30.5384,1582.4575
30.5494,1601.1072
30.5604,1719.5744
30.5714,1687.6909
30.5824,1680.9504
30.5934,1791.2012
30.6044,1810.647
30.6154,1757.2662
30.6264,1848.9519
30.6374,1799.3654
30.6484,1930.2121
30.6594,1960.5959
30.6704,1961.088
30.6814,1964.6972
30.6924,2015.5755
30.7034,2155.6378
30.7144,2053.4272
30.7254,2106.4339
30.7364,2184.8883
30.7474,2240.8921
30.7584,2285.6113
30.7694,2442.5335
30.7804,2559.6455
30.7914,2776.8059
30.8024,2898.5215
30.8134,2978.3988
30.8244,3108.0188
30.8354,3363.5008
30.8464,3655.463
30.8574,4078.5217
30.8684,4605.8358
30.8794,4971.4784
30.8904,5579.0954
30.9014,6441.0235
30.9124,7318.7
30.9234,8381.2174
30.9344,9585.4168
30.9454,11262.4937
30.9564,13366.404
30.9674,15912.5512
30.9784,18556.8049
30.9894,21697.862
31.0004,25619.7745
31.0114,31156.5211
31.0224,37835.6433
31.0334,46507.9012
31.0444,57334.5921
31.0554,70288.511
31.0664,82574.387
31.0774,89614.178
31.0884,85385.7593
31.0994,71857.3423
31.1104,57738.1204
31.1214,49199.1126
31.1324,46349.6732
31.1434,45077.7431
31.1544,40594.343
31.1654,31717.0948
31.1764,21736.6833
31.1874,13858.4201
31.1984,9041.8038
31.2094,6396.5578
31.2204,4834.649
31.2314,4011.53
31.2424,3608.2219
31.2534,3221.5174
31.2644,3023.0627
31.2754,2952.7833
31.2864,2777.9296
31.2974,2604.9758
31.3084,2521.2564
31.3194,2534.7702
31.3304,2424.7567
31.3414,2362.2793
31.3524,2355.8893
31.3634,2239.1271
31.3744,2232.7122
31.3854,2201.5247
31.3964,2115.9111
31.4074,2055.6959
31.4184,2090.1109
31.4294,2021.6307
31.4404,1923.1692
31.4514,1949.0799
31.4624,1750.0096
31.4734,1801.2022
31.4844,1745.4892
31.4954,1743.8428
31.5064,1587.9293
31.5174,1643.1244
31.5284,1636.1031
31.5394,1554.4135
31.5504,1487.597
31.5614,1482.8152
31.5724,1365.257
31.5834,1382.0326
31.5944,1378.3333
31.6054,1431.5775
31.6164,1303.1808
31.6274,1380.4498
31.6384,1369.083
31.6494,1206.9624
31.6604,1367.4534
31.6714,1284.8841
31.6824,1311.5456
31.6934,1278.229
31.7044,1264.7306
31.7154,1260.9203
31.7264,1259.1725
31.7374,1253.6058
31.7484,1276.6991
31.7594,1282.1288
31.7704,1280.4601
31.7814,1257.3301
31.7924,1222.7873
31.8034,1257.5505
31.8144,1238.3319
31.8254,1255.546
31.8364,1295.199
31.8474,1275.3629
31.8584,1276.169
31.8694,1283.1311
31.8804,1319.6707
31.8914,1272.9471
31.9024,1300.443
31.9134,1299.1858
31.9244,1326.8344
31.9354,1383.3585
31.9464,1351.3588
31.9574,1417.952
31.9684,1528.9628
31.9794,1723.9592
31.9904,1867.9031
32.0014,2003.7633
32.0124,2013.8936
32.0234,1895.1877
32.0344,1747.6315
32.0454,1685.9229
32.0564,1677.6292
32.0674,1732.1349
32.0784,1736.3834
32.0894,1703.5957
32.1004,1613.6424
32.1114,1483.8667
32.1224,1368.2138
32.1334,1353.6296
32.1444,1349.3419
32.1554,1276.2966
32.1664,1243.1672
32.1774,1249.9588
32.1884,1255.2163
32.1994,1216.9112
32.2104,1163.8936
32.2214,1236.6605
32.2324,1196.6031
32.2434,1127.9025
32.2544,1146.3222
32.2654,1150.2812
32.2764,1190.5092
32.2874,1190.3116
32.2984,1202.008
32.3094,1215.6903
32.3204,1246.715
32.3314,1276.7346
32.3424,1264.2742
32.3534,1244.7344
32.3644,1230.5373
32.3754,1225.5487
32.3864,1192.6532
32.3974,1201.9922
32.4084,1251.9693
32.4194,1247.8721
32.4304,1242.4857
32.4414,1296.3425
32.4524,1287.6464
32.4634,1274.0992
32.4744,1340.7245
32.4854,1323.4394
32.4964,1311.5245
32.5074,1463.4078
32.5184,1360.5644
32.5294,1372.8378
32.5404,1417.0577
32.5514,1456.6748
32.5624,1503.8012
32.5734,1459.6136
32.5844,1469.3279
32.5954,1362.056
32.6064,1342.0571
32.6174,1270.6628
32.6284,1287.4012
32.6394,1275.8345
32.6504,1229.9854
32.6614,1249.6332
32.6724,1233.4024
32.6834,1189.1937
32.6944,1177.7107
32.7054,1137.0529
32.7164,1106.2447
32.7274,1088.2626
32.7384,1093
32.7494,1110.6257
32.7604,1163.054
32.7714,1137.0971
32.7824,1100.8342
32.7934,1092.6835
32.8044,1116.7833
32.8154,1148.6452
32.8264,1153.2318
32.8374,1104.6664
32.8484,1090.3921
32.8594,1133.653
32.8704,1136.4468
32.8814,1109.0224
32.8924,1102.1084
32.9034,1118.0883
32.9144,1117.5819
32.9254,1149.9783
32.9364,1094.5009
32.9474,1092.9623
32.9584,1123.9573
32.9694,1073.0383
32.9804,1078.4106
32.9914,1085
33.0024,1083.9646
33.0134,1071.3401
33.0244,1087.572
33.0354,1078.3891
33.0464,1058.1018
33.0574,1066.0541
33.0684,1083.1948
33.0794,1074.8878
33.0904,1051.2954
33.1014,1019.4954
33.1124,1006.9218
33.1234,1068.0673
33.1344,1070.7313
33.1454,1104.1016
33.1564,1060.0915
33.1674,1055.9766
33.1784,1023.424
33.1894,986.3804
33.2004,1001.1683
33.2114,986.463
33.2224,1038.555
33.2334,1036.053
33.2444,1057.5838
33.2554,1066.6008
33.2664,1036.9305
33.2774,1067.9491
33.2884,1118.7008
33.2994,1065.8315
33.3104,1005.0125
33.3214,1076.5472
33.3324,1005.5615
33.3434,1030.0503
33.3544,1022.1568
33.3654,1017.3068
33.3764,1016.0644
33.3874,1033.062
33.3984,1077.2082
33.4094,1012.8718
33.4204,1040.5429
33.4314,975.1944
33.4424,996.1776
33.4534,1014.1994
33.4644,980.4089
33.4754,1050.479
33.4864,1077.7234
33.4974,1021.1059
33.5084,969.5014
33.5194,968.6738
33.5304,1013
33.5414,1009.2811
33.5524,992.9773
33.5634,1049.6779
33.5744,953.9812
33.5854,941.376
33.5964,1006.376
33.6074,972.0892
33.6184,944.0641
33.6294,989.2598
33.6404,1025.0777
33.6514,1022
33.6624,1023.531
33.6734,1045.6523
33.6844,1057.6326
33.6954,975.0975
33.7064,1019.0426
33.7174,1045.0185
33.7284,1004.5013
33.7394,977.294
33.7504,985.3119
33.7614,987.7107
33.7724,937.8523
33.7834,951.3309
33.7944,981.5526
33.8054,955.4615
33.8164,1004.2631
33.8274,1019.7139
33.8384,1013.8971
33.8494,966.4402
33.8604,954.2967
33.8714,998.1044
33.8824,1012.4931
33.8934,994.1149
33.9044,978.9489
33.9154,983.3786
33.9264,989.1003
33.9374,1016.9973
33.9484,1019.0338
33.9594,982.693
33.9704,989.1747
33.9814,964.2455
33.9924,960.8365
34.0034,968.9105
34.0144,959.5152
34.0254,969.2154
34.0364,936.9623
34.0474,971.4576
34.0584,947.1648
34.0694,934.5192
34.0804,965.4446
34.0914,967.9203
34.1024,969.4809
34.1134,953.5407
34.1244,985.0268
34.1354,992.8653
34.1464,925.9342
34.1574,925.1653
34.1684,964.2839
34.1794,956.1759
34.1904,980.0444
34.2014,948.988
34.2124,956.9155
34.2234,997.8085
34.2344,954.7077
34.2454,976.1978
34.2564,963.379
34.2674,946.17
34.2784,968.5867
34.2894,1040.726
34.3004,1007.2142
34.3114,1087.3682
34.3224,1053.2653
34.3334,1046.7835
34.3444,1004.1016
34.3554,1065.1413
34.3664,1005.4628
34.3774,1040.1358
34.3884,1058.0087
34.3994,1032.9107
34.4104,1059.3594
34.4214,983
34.4324,979.6493
34.4434,964.2266
34.4544,1023.3506
34.4654,958.9145
34.4764,969.1059
34.4874,988.6281
34.4984,963.7322
34.5094,981.9842
34.5204,967.7978
34.5314,952.4633
34.5424,987.2996
34.5534,994.4332
34.5644,951.7252
34.5754,995.9454
34.5864,930.2876
34.5974,938.7976
34.6084,956.0634
34.6194,965.0326
34.6304,971.8346
34.6414,962.3405
34.6524,1002.5546
34.6634,989.9114
34.6744,964.5092
34.6854,956.9735
34.6964,967.2316
34.7074,944.0538
34.7184,947.8544
34.7294,988.9468
34.7404,957.8542
34.7514,953.7672
34.7624,977.9685
34.7734,960.1306
34.7844,936.4203
34.7954,963.7899
34.8064,978.5972
34.8174,972.5487
34.8284,957.9113
34.8394,922.6095
34.8504,949.9473
34.8614,942.5218
34.8724,933.3939
34.8834,944
34.8944,928.8376
34.9054,931.593
34.9164,970.8174
34.9274,936.5148
34.9384,888.5293
34.9494,977.1305
34.9604,967.3811
34.9714,960.0739
34.9824,968.1903
34.9934,952.6675
35.0044,919.8317
35.0154,940.1447
35.0264,976.274
35.0374,995.0817
35.0484,987.5501
35.0594,1011.9323
35.0704,971.6084
35.0814,940.9822
35.0924,920.7929
35.1034,953.4771
35.1144,946.7138
35.1254,956.5684
35.1364,964.3152
35.1474,931.165
35.1584,958.5828
35.1694,955.3657
35.1804,941.6813
35.1914,965.0906
35.2024,1025.5308
35.2134,952.8846
35.2244,968.0084
35.2354,984.8338
35.2464,972.0752
35.2574,973.281
35.2684,930.1919
35.2794,951.2653
35.2904,924.4803
35.3014,920.1634
35.3124,945.6683
35.3234,968.8888
35.3344,961.3575
35.3454,966.2506
35.3564,943.6955
35.3674,978.864
35.3784,925.8228
35.3894,913.7555
35.4004,967.2398
35.4114,945.3183
35.4224,910.3217
35.4334,923.6174
35.4444,912.4043
35.4554,937.4308
35.4664,939.9968
35.4774,916.6108
35.4884,942.4542
35.4994,934.9233
35.5104,920.6767
35.5214,898.2971
35.5324,919.8982
35.5434,910.4306
35.5544,925.7845
35.5654,943.161
35.5764,891.3095
35.5874,898.7675
35.5984,948.1425
35.6094,915.8817
35.6204,906.5917
35.6314,909.0498
35.6424,870.0515
35.6534,914.2631
35.6644,941.4874
35.6754,913.0266
35.6864,894.2977
35.6974,903.6247
35.7084,888.3196
35.7194,864.0719
35.7304,901.2943
35.7414,892.9348
35.7524,904.6566
35.7634,907.5062
35.7744,908.7612
35.7854,854.0112
35.7964,860.7742
35.8074,934.2423
35.8184,946.7157
35.8294,904.1452
35.8404,864.9585
35.8514,873.9293
35.8624,888.4204
35.8734,903.3364
35.8844,895.4547
35.8954,914.2578
35.9064,938.7759
35.9174,905.2583
35.9284,871.9605
35.9394,885.186
35.9504,890.8117
35.9614,919.8399
35.9724,910.1105
35.9834,915.4858
35.9944,926.4696
36.0054,961.1801
36.0164,936.7801
36.0274,931.2045
36.0384,926.4498
36.0494,950.9028
36.0604,881.9691
36.0714,905.4072
36.0824,810.1209
36.0934,941.0371
36.1044,913.519
36.1154,892.0825
36.1264,857.2091
36.1374,882.0207
36.1484,883.4942
36.1594,898.6785
36.1704,910.0086
36.1814,863.9324
36.1924,899.9619
36.2034,865.9056
36.2144,865.5335
36.2254,873.0936
36.2364,887.0734
36.2474,842.6436
36.2584,920.1811
36.2694,861.4511
36.2804,843.9241
36.2914,888.4218
36.3024,883.9498
36.3134,876.4346
36.3244,876.3928
36.3354,866.1621
36.3464,852.7793
36.3574,869.7249
36.3684,902.2788
36.3794,900.3805
36.3904,895.5167
36.4014,898.6844
36.4124,894.0648
36.4234,881.9173
36.4344,892.3307
36.4454,907.0302
36.4564,888.3296
36.4674,899.929
36.4784,900.6822
36.4894,891.501
36.5004,856.1817
36.5114,867.0893
36.5224,866.9353
36.5334,896.4839
36.5444,867.8678
36.5554,838.242
36.5664,861.0001
36.5774,849.9467
36.5884,836.3934
36.5994,893.3928
36.6104,906.3448
36.6214,885.3688
36.6324,913.2451
36.6434,913.2466
36.6544,884.4433
36.6654,870.9469
36.6764,889.5562
36.6874,912.7985
36.6984,908.64
36.7094,880.5672
36.7204,880.4254
36.7314,929.1154
36.7424,878.6371
36.7534,891.2462
36.7644,865.7253
36.7754,871.7396
36.7864,851.6586
36.7974,856.4042
36.8084,876.4082
36.8194,823.0802
36.8304,880.1392
36.8414,876.3961
36.8524,816.9082
36.8634,837.4427
36.8744,837.2468
36.8854,832.5742
36.8964,866.7495
36.9074,874.6431
36.9184,837.4806
36.9294,878.2805
36.9404,805.8963
36.9514,881.7871
36.9624,888.9425
36.9734,811.6633
36.9844,879.5629
36.9954,864.3716
37.0064,829.2923
37.0174,845.7322
37.0284,779.0225
37.0394,840.6292
37.0504,828.6122
37.0614,842.6283
37.0724,839.0735
37.0834,880.281
37.0944,847.1002
37.1054,838.4091
37.1164,848.7589
37.1274,895.2918
37.1384,854.052
37.1494,836.5485
37.1604,811.5666
37.1714,844.9284
37.1824,868
37.1934,866.997
37.2044,864.916
37.2154,875.6028
37.2264,873.2769
37.2374,839.2373
37.2484,875.3313
37.2594,857.3184
37.2704,850.4717
37.2814,866.6624
37.2924,829.1122
37.3034,833.0884
37.3144,821.2914
37.3254,844.1126
37.3364,886.0169
37.3474,844.0186
37.3584,818.982
37.3694,826.328
37.3804,863.4751
37.3914,821.2978
37.4024,833.6134
37.4134,854.9467
37.4244,824.4039
37.4354,817.304
37.4464,847.8817
37.4574,877.9028
37.4684,848.8781
37.4794,846.4114
37.4904,867.2211
37.5014,854.9105
37.5124,868.4829
37.5234,880.5693
37.5344,847.8478
37.5454,847.1625
37.5564,829.0528
37.5674,833.5951
37.5784,856.3078
37.5894,866.4307
37.6004,874.5876
37.6114,839.6113
37.6224,801.2815
37.6334,884.7599
37.6444,885.8419
37.6554,803.7694
37.6664,841.4326
37.6774,830.1541
37.6884,798.404
37.6994,825.7033
37.7104,867.9093
37.7214,827.9849
37.7324,844.7057
37.7434,798.2002
37.7544,840.611
37.7654,787.3408
37.7764,855.09
37.7874,853.4424
37.7984,864.1491
37.8094,857.1111
37.8204,846.087
37.8314,866.9234
37.8424,903.2534
37.8534,805.6277
37.8644,818.007
37.8754,793.0087
37.8864,798.8245
37.8974,833.5528
37.9084,787.0228
37.9194,800.8819
37.9304,792.0602
37.9414,834.7453
37.9524,828
37.9634,827.3293
37.9744,817.6593
37.9854,828.0532
37.9964,849.9022
38.0074,849.7709
38.0184,857.9588
38.0294,858.9326
38.0404,780.1452
38.0514,812.7081
38.0624,827.3432
38.0734,834.3325
38.0844,843.2872
38.0954,803.6377
38.1064,871.1831
38.1174,841.6226
38.1284,863.1306
38.1394,830.4068
38.1504,802.1284
38.1614,809.5092
38.1724,804.78
38.1834,846.192
38.1944,857.8124
38.2054,815.0235
38.2164,812.8423
38.2274,837.5263
38.2384,842.483
38.2494,797.2034
38.2604,798.8199
38.2714,812.3645
38.2824,795.4352
38.2934,802.6951
38.3044,794.768
38.3154,804.7228
38.3264,811.6671
38.3374,811.8732
38.3484,802.7211
38.3594,816.6827
38.3704,828.0436
38.3814,788.6546
38.3924,795.7176
38.4034,798.3429
38.4144,794.6875
38.4254,830.2421
38.4364,859.2002
38.4474,848.345
38.4584,825.5609
38.4694,811.4837
38.4804,851.0668
38.4914,847.3586
38.5024,857.2028
38.5134,842.3036
38.5244,839.3172
38.5354,810.395
38.5464,849.4296
38.5574,883.3197
38.5684,824.6199
38.5794,848.4546
38.5904,848.7688
38.6014,824.6537
38.6124,866.9546
38.6234,829.6987
38.6344,865.6434
38.6454,830.9112
38.6564,888.6598
38.6674,819.7831
38.6784,790.3819
38.6894,808.0601
38.7004,839.303
38.7114,850.1741
38.7224,832.819
38.7334,873.3818
38.7444,825.6501
38.7554,808.757
38.7664,812.7911
38.7774,840.1742
38.7884,829.2064
38.7994,822.0344
38.8104,806.2878
38.8214,844.3902
38.8324,814.2557
38.8434,821.1592
38.8544,805.2618
38.8654,838.801
38.8764,785.1639
38.8874,824.9236
38.8984,860.463
38.9094,833.926
38.9204,800.6905
38.9314,835.1368
38.9424,843.1589
38.9534,786.5075
38.9644,808.5111
38.9754,845.0971
38.9864,809.8789
38.9974,787.0816
39.0084,797.8586
39.0194,812.5681
39.0304,805.7497
39.0414,835.5923
39.0524,773.1115
39.0634,818.1908
39.0744,819.0456
39.0854,801.1121
39.0964,791.4419
39.1074,783.3924
39.1184,775.9388
39.1294,783.4715
39.1404,834.4778
39.1514,808.7943
39.1624,798.4181
39.1734,814
39.1844,807.1956
39.1954,795.8122
39.2064,788.9513
39.2174,802.9481
39.2284,805.5479
39.2394,790.3275
39.2504,798.9961
39.2614,805.6018
39.2724,816.8069
39.2834,804.7795
39.2944,802.7047
39.3054,799.4276
39.3164,775.3991
39.3274,770.0954
39.3384,807.6464
39.3494,800.5179
39.3604,763.5859
39.3714,741.584
39.3824,775.084
39.3934,812.1525
39.4044,788.4584
39.4154,826.3043
39.4264,831.521
39.4374,841.4072
39.4484,804.3438
39.4594,765.756
39.4704,805.67
39.4814,840.1712
39.4924,791.3708
39.5034,794.5429
39.5144,778.5618
39.5254,802.0268
39.5364,811.4558
39.5474,840.25
39.5584,841.7841
39.5694,816.1916
39.5804,803.3225
39.5914,809.0404
39.6024,767.1679
39.6134,790.0435
39.6244,775.5785
39.6354,860.4165
39.6464,803.9195
39.6574,846.7358
39.6684,822.9158
39.6794,809.2811
39.6904,781.2614
39.7014,852.7487
39.7124,768.122
39.7234,776.2754
39.7344,787.155
39.7454,811.9249
39.7564,757.095
39.7674,776.9885
39.7784,821.3513
39.7894,786.0257
39.8004,801.3878
39.8114,780.4965
39.8224,778.796
39.8334,787.1415
39.8444,777.5096
39.8554,806.7993
39.8664,795.4295
39.8774,839.3857
39.8884,862.8548
39.8994,843.5871
39.9104,846.5406
39.9214,820.9755
39.9324,838.8717
39.9434,856.2942
39.9544,870.1453
39.9654,884.4138
39.9764,943.8414
39.9874,899.9605
39.9984,963.9023
40.0094,881.4713
40.0204,828.7668
40.0314,875.894
40.0424,878.337
40.0534,862.2844
40.0644,878.1401
40.0754,874.4209
40.0864,867.6366
40.0974,846.4187
40.1084,841.1545
40.1194,845.4198
40.1304,819.6723
40.1414,792.581
40.1524,807.81
40.1634,826.8849
40.1744,835.1609
40.1854,847.7188
40.1964,856.6726
40.2074,834.1511
40.2184,825.1933
40.2294,819.1768
40.2404,832.6035
40.2514,857.8801
40.2624,868.4086
40.2734,839.5376
40.2844,848.1753
40.2954,863.3333
40.3064,802.2143
40.3174,806.1802
40.3284,844.217
40.3394,864.0217
40.3504,843.9718
40.3614,820.1916
40.3724,818.7636
40.3834,846.01
40.3944,905.3013
40.4054,860.7812
40.4164,824.1513
40.4274,817.3717
40.4384,821.9587
40.4494,833.9037
40.4604,818.1282
40.4714,829.6766
40.4824,835.5025
40.4934,803.1473
40.5044,817.9043
40.5154,830.0374
40.5264,843.947
40.5374,829.0697
40.5484,812.8101
40.5594,805.2684
40.5704,886.8117
40.5814,798.2659
40.5924,814.9736
40.6034,853.5563
40.6144,813.4392
40.6254,833.2392
40.6364,867.2862
40.6474,874.7396
40.6584,897.8802
40.6694,853.7951
40.6804,942.4135
40.6914,888.4223
40.7024,944.3852
40.7134,912.4711
40.7244,922.4381
40.7354,922.9419
40.7464,908.7585
40.7574,901.7791
40.7684,929.0935
40.7794,897.0133
40.7904,952.1103
40.8014,920.0168
40.8124,917.538
40.8234,883.3629
40.8344,898.6893
40.8454,902.9065
40.8564,915.2526
40.8674,950.5445
40.8784,925.0896
40.8894,926.7491
40.9004,902.1744
40.9114,914.0732
40.9224,955.2655
40.9334,959.6933
40.9444,947.8404
40.9554,915.8083
40.9664,917.8329
40.9774,914.2841
40.9884,910.205
40.9994,921.1594
41.0104,912.8419
41.0214,902.0355
41.0324,872.3156
41.0434,847.0838
41.0544,873.2656
41.0654,861.9722
41.0764,840.764
41.0874,852.3423
41.0984,881.4815
41.1094,904.7956
41.1204,890.8139
41.1314,860.9802
41.1424,866.9402
41.1534,843.8551
41.1644,845.6806
41.1754,887.898
41.1864,871.5498
41.1974,834.0893
41.2084,832.9288
41.2194,844.6903
41.2304,856.5369
41.2414,886.0533
41.2524,856.2563
41.2634,868.9383
41.2744,846.8164
41.2854,893.4193
41.2964,895.082
41.3074,885.4179
41.3184,852.4201
41.3294,889.3897
41.3404,824.7453
41.3514,872.6494
41.3624,916.6384
41.3734,876.6978
41.3844,922.1257
41.3954,888.69
41.4064,880.3677
41.4174,843.1856
41.4284,881.9693
41.4394,839.6428
41.4504,871.4604
41.4614,906.9334
41.4724,859.891
41.4834,887.8291
41.4944,905.2963
41.5054,796.7849
41.5164,839.518
41.5274,886.6971
41.5384,880.7779
41.5494,895.2892
41.5604,916.1256
41.5714,945.0674
41.5824,870.1928
41.5934,820.6593
41.6044,888.1982
41.6154,899.1768
41.6264,885.2334
41.6374,928.688
41.6484,898.782
41.6594,918.9357
41.6704,880.7313
41.6814,916.7228
41.6924,904.1062
41.7034,845.7583
41.7144,870.8099
41.7254,882.2712
41.7364,862.152
41.7474,878.7818
41.7584,899.0277
41.7694,886.6514
41.7804,841.0607
41.7914,859.5731
41.8024,867.6823
41.8134,891.8493
41.8244,881.63
41.8354,891.278
41.8464,850.4127
41.8574,826.884
41.8684,847.9717
41.8794,884.5341
41.8904,881.3517
41.9014,871.6797
41.9124,881.9512
41.9234,862.7993
41.9344,837.5568
41.9454,831.6756
41.9564,865.0859
41.9674,869.278
41.9784,859.5664
41.9894,851.0126
42.0004,878.3097
42.0114,889.4777
42.0224,882.3673
42.0334,904.2598
42.0444,891.162
42.0554,858.9025
42.0664,871.5936
42.0774,885.9735
42.0884,840.7621
42.0994,886.923
42.1104,859.9508
42.1214,862.9865
42.1324,887.2277
42.1434,870.7845
42.1544,887.5474
42.1654,892.9754
42.1764,878.168
42.1874,870.8771
42.1984,866.0349
42.2094,831.1767
42.2204,820.5472
42.2314,853.1959
42.2424,890.3188
42.2534,860.9663
42.2644,894.0047
42.2754,849.0144
42.2864,854.4789
42.2974,900.2786
42.3084,881.1857
42.3194,841.8709
42.3304,899.1931
42.3414,810.5775
42.3524,852.3248
42.3634,852.0452
42.3744,908.4119
42.3854,865.0769
42.3964,903.3581
42.4074,862.2132
42.4184,978.0188
42.4294,926.75
42.4404,885.6977
42.4514,904.0263
42.4624,990.7347
42.4734,876.6078
42.4844,903.1526
42.4954,943.9851
42.5064,1052.1591
42.5174,1025.1602
42.5284,1011.4264
42.5394,1023.6519
42.5504,1028.3355
42.5614,1080.6301
42.5724,1188.8587
42.5834,1233.1606
42.5944,1270.116
42.6054,1310.3375
42.6164,1496.2548
42.6274,1657.9575
42.6384,1822.5755
42.6494,2098.1483
42.6604,2399.5263
42.6714,2747.1469
42.6824,3193.6402
42.6934,3752.1405
42.7044,4202.9633
42.7154,4658.0233
42.7264,5014.7918
42.7374,5224.2957
42.7484,5221.7497
42.7594,4974.1068
42.7704,4536.2266
42.7814,3958.7737
42.7924,3527.8488
42.8034,3283.6972
42.8144,3154.3981
42.8254,3069.0004
42.8364,2945.4468
42.8474,2838.3969
42.8584,2597.1157
42.8694,2244.3749
42.8804,1830.0863
42.8914,1492.9756
42.9024,1280.6759
42.9134,1151.4379
42.9244,1086.0391
42.9354,1037.0911
42.9464,1013.4847
42.9574,981.8679
42.9684,960.4262
42.9794,908.7389
42.9904,923.3229
43.0014,917.1502
43.0124,917.9436
43.0234,930.1485
43.0344,919.9114
43.0454,905.3873
43.0564,893.731
43.0674,871.8995
43.0784,880.7499
43.0894,914.1782
43.1004,889.1634
43.1114,922.4723
43.1224,913.0141
43.1334,930.7819
43.1444,860.1951
43.1554,902.1902
43.1664,881.2623
43.1774,868.1307
43.1884,870.5969
43.1994,869.177
43.2104,849.6002
43.2214,898.549
43.2324,891.5678
43.2434,846.8089
43.2544,838.1892
43.2654,822.2359
43.2764,851.9265
43.2874,904.4588
43.2984,849.6238
43.3094,832.6558
43.3204,824.308
43.3314,850.41
43.3424,837.863
43.3534,799.7583
43.3644,833.2598
43.3754,865.5144
43.3864,873.9044
43.3974,838.9555
43.4084,806.2901
43.4194,804.5387
43.4304,784.1341
43.4414,778.0925
43.4524,793.1652
43.4634,793.8701
43.4744,802.723
43.4854,878.2907
43.4964,826.2652
43.5074,789.6085
43.5184,769.9282
43.5294,785.2158
43.5404,825.8568
43.5514,807.9518
43.5624,807.6594
43.5734,802.2356
43.5844,780.4517
43.5954,800.4245
43.6064,792.878
43.6174,816.8857
43.6284,784.4924
43.6394,777.0946
43.6504,812.0332
43.6614,812.4746
43.6724,792.4407
43.6834,799.7629
43.6944,783.5663
43.7054,775.4769
43.7164,792.6325
43.7274,818.0237
43.7384,792.6048
43.7494,784.1468
43.7604,798.5397
43.7714,816.1271
43.7824,818.6748
43.7934,826.7082
43.8044,834.3623
43.8154,826.6008
43.8264,791.9465
43.8374,805.3416
43.8484,816.4498
43.8594,822.0326
43.8704,818.081
43.8814,815.6942
43.8924,812.8849
43.9034,821.4721
43.9144,811.081
43.9254,791.2683
43.9364,820.5455
43.9474,842.7149
43.9584,798.9052
43.9694,812.5597
43.9804,818.6475
43.9914,825.9647
44.0024,814.2511
44.0134,892.2839
44.0244,813.3326
44.0354,809.2214
44.0464,846.3169
44.0574,834.5957
44.0684,819.6449
44.0794,833.2115
44.0904,865.8409
44.1014,831.3055
44.1124,805.64
44.1234,825.7111
44.1344,863.3375
44.1454,799.1392
44.1564,818.5783
44.1674,819.9931
44.1784,809.2058
44.1894,845.6189
44.2004,768.4601
44.2114,754.383
44.2224,827.7798
44.2334,775.2766
44.2444,820.3667
44.2554,807.9701
44.2664,760.5936
44.2774,783.8122
44.2884,792.8232
44.2994,803.9849
44.3104,760.9634
44.3214,791.8524
44.3324,793.9567
44.3434,848.6861
44.3544,819.5337
44.3654,794.8575
44.3764,796.6401
44.3874,787.9379
44.3984,779.7735
44.4094,790.3106
44.4204,777.5176
44.4314,786.846
44.4424,813.3832
44.4534,787.4396
44.4644,795
44.4754,788.5918
44.4864,781.593
44.4974,794.533
44.5084,808.3537
44.5194,820.9085
44.5304,810.4178
44.5414,812.6865
44.5524,839.8527
44.5634,804.1634
44.5744,766.113
44.5854,801.5398
44.5964,777.3763
44.6074,763.1191
44.6184,781.9647
44.6294,759.4765
44.6404,772.1662
44.6514,817.5429
44.6624,820.084
44.6734,790.8669
44.6844,784.6993
44.6954,799.0817
44.7064,794.26
44.7174,807.2303
44.7284,840.0789
44.7394,873.8645
44.7504,855.0616
44.7614,778.2275
44.7724,797.1849
44.7834,842.4427
44.7944,813.8457
44.8054,815.3561
44.8164,839.5208
44.8274,791.9366
44.8384,818.8013
44.8494,872.7585
44.8604,851.9992
44.8714,856.8153
44.8824,822.1899
44.8934,790.283
44.9044,828.2811
44.9154,838
44.9264,807.7166
44.9374,860.0378
44.9484,825.8448
44.9594,833.0493
44.9704,803.837
44.9814,831.5932
44.9924,755.3991
45.0034,856.4875
45.0144,862.1814
45.0254,804.8904
45.0364,837.6723
45.0474,851.6933
45.0584,829.2599
45.0694,842.004
45.0804,845.6281
45.0914,819.6622
45.1024,880.1224
45.1134,809.3071
45.1244,847.6297
45.1354,772.68
45.1464,844.1314
45.1574,853.517
45.1684,834.5715
45.1794,861.8849
45.1904,854.2724
45.2014,861.0484
45.2124,876.6558
45.2234,807.1731
45.2344,812.6339
45.2454,817.7812
45.2564,762.0882
45.2674,787.889
45.2784,795.8893
45.2894,796.6511
45.3004,823.1092
45.3114,823.3154
45.3224,800
45.3334,796.7443
45.3444,793.3157
45.3554,803
45.3664,778.3692
45.3774,740.7348
45.3884,774.0804
45.3994,773.2956
45.4104,746.4043
45.4214,776.9551
45.4324,774.1318
45.4434,740.7966
45.4544,780.1642
45.4654,820.8781
45.4764,800.1102
45.4874,777.8291
45.4984,774.5898
45.5094,762.4484
45.5204,762.9705
45.5314,793.1017
45.5424,835.1196
45.5534,801.6563
45.5644,779.9604
45.5754,786.3362
45.5864,777.9493
45.5974,732.4508
45.6084,738.5919
45.6194,782.3129
45.6304,787.466
45.6414,787.4809
45.6524,793.2621
45.6634,769.0764
45.6744,815.5758
45.6854,779.2068
45.6964,769.6442
45.7074,769.4335
45.7184,781.2494
45.7294,813.5843
45.7404,801.9792
45.7514,776.6871
45.7624,806.665
45.7734,822.5133
45.7844,765.6067
45.7954,801.3564
45.8064,786.6163
45.8174,780.1632
45.8284,813.9629
45.8394,812.2477
45.8504,817.9892
45.8614,828.7454
45.8724,798.5617
45.8834,834.1527
45.8944,803.8557
45.9054,809.416
45.9164,765.4721
45.9274,823.4606
45.9384,836.6918
45.9494,835.0315
45.9604,818.0584
45.9714,844.8672
45.9824,831.4592
45.9934,898.1306
46.0044,873.6859
46.0154,890.6109
46.0264,934.3359
46.0374,954.1477
46.0484,982.5549
46.0594,1041.5418
46.0704,1181.3944
46.0814,1261.6895
46.0924,1316.5403
46.1034,1515.8238
46.1144,1655.6778
46.1254,1912.9761
46.1364,2169.2753
46.1474,2538.4811
46.1584,2956.7675
46.1694,3224.7006
46.1804,3410.1485
46.1914,3501.0707
46.2024,3511.6424
46.2134,3214.7621
46.2244,2882.4288
46.2354,2503.7776
46.2464,2327.1411
46.2574,2208.377
46.2684,2222.1057
46.2794,2176.2361
46.2904,2144.5479
46.3014,2074.8672
46.3124,1972.0213
46.3234,1729.9464
46.3344,1486.464
46.3454,1253.7069
46.3564,1092.2407
46.3674,966.8579
46.3784,903.9642
46.3894,862.1502
46.4004,867.0401
46.4114,852.9661
46.4224,807.7186
46.4334,788.0736
46.4444,795.5838
46.4554,801.3047
46.4664,795.562
46.4774,802.3167
46.4884,785.8847
46.4994,773.3953
46.5104,776.2222
46.5214,802.5598
46.5324,793.2077
46.5434,757.6163
46.5544,753.2631
46.5654,777.1772
46.5764,776.0422
46.5874,777.2744
46.5984,783.5472
46.6094,726.5392
46.6204,756.116
46.6314,793.658
46.6424,696.0703
46.6534,753.1955
46.6644,773.7345
46.6754,789.5006
46.6864,775.4212
46.6974,735.7372
46.7084,707.1911
46.7194,731.718
46.7304,731.8584
46.7414,763.1615
46.7524,779.4598
46.7634,738.097
46.7744,752.9343
46.7854,772.4495
46.7964,742.3567
46.8074,770.1753
46.8184,745.2525
46.8294,762.3836
46.8404,743.403
46.8514,758.8743
46.8624,741.9114
46.8734,722.485
46.8844,752.1606
46.8954,789.6782
46.9064,761.9478
46.9174,814.5271
46.9284,821.6873
46.9394,819.538
46.9504,833.0476
46.9614,822.5579
46.9724,868.6704
46.9834,844.8646
46.9944,876.2903
47.0054,853.4485
47.0164,874.1771
47.0274,891.2656
47.0384,920.7067
47.0494,1012.0162
47.0604,1071.0579
47.0714,1121.612
47.0824,1213.3019
47.0934,1371.2007
47.1044,1433.02
47.1154,1625.0094
47.1264,1833.8835
47.1374,2026.6787
47.1484,2215.8999
47.1594,2463.1702
47.1704,2747.2085
47.1814,2938.187
47.1924,2903.8913
47.2034,2656.5054
47.2144,2265.4025
47.2254,1955.8715
47.2364,1767.476
47.2474,1719.1656
47.2584,1706.8843
47.2694,1706.0529
47.2804,1761.6996
47.2914,1760.9027
47.3024,1700.5025
47.3134,1543.9859
47.3244,1315.9848
47.3354,1116.5851
47.3464,958.038
47.3574,893.0533
47.3684,870.8108
47.3794,811.8196
47.3904,801.0769
47.4014,813.0335
47.4124,787.7647
47.4234,797.5136
47.4344,778.2474
47.4454,771.4613
47.4564,761.2963
47.4674,755.7218
47.4784,763.2346
47.4894,780.1004
47.5004,720.7245
47.5114,747.5315
47.5224,720.2606
47.5334,746.9886
47.5444,711.9455
47.5554,728.1507
47.5664,721.9699
47.5774,769.4144
47.5884,721.6425
47.5994,715.4514
47.6104,704.3966
47.6214,738.6581
47.6324,698.3005
47.6434,726.0839
47.6544,729.2212
47.6654,754.247
47.6764,672.0008
47.6874,698.2717
47.6984,653.1338
47.7094,746.986
47.7204,715.4009
47.7314,708.1474
47.7424,670.4668
47.7534,710.9999
47.7644,700.1722
47.7754,713.9016
47.7864,710.295
47.7974,714.9022
47.8084,661.8224
47.8194,764.8937
47.8304,752.2046
47.8414,759.0015
47.8524,703.115
47.8634,691.2062
47.8744,657.5408
47.8854,667.0475
47.8964,695.9279
47.9074,676.0457
47.9184,738.6093
47.9294,742.6769
47.9404,678.0896
47.9514,686.4425
47.9624,688
47.9734,688
47.9844,687.4838
47.9954,697.8981
48.0064,717.2784
48.0174,686.77
48.0284,694.3801
48.0394,696.8868
48.0504,720.8459
48.0614,744.883
48.0724,684.09
48.0834,723.4128
48.0944,710.0482
48.1054,714.6067
48.1164,726.574
48.1274,714.4931
48.1384,690.9285
48.1494,708.9202
48.1604,675.8969
48.1714,661.9462
48.1824,676.6032
48.1934,693.1743
48.2044,701.4094
48.2154,699.2922
48.2264,693.2014
48.2374,691.3571
48.2484,713.7214
48.2594,713.8229
48.2704,698.4901
48.2814,708.9294
48.2924,706.7501
48.3034,694.9272
48.3144,702.4028
48.3254,695.8563
48.3364,702.6801
48.3474,715.3098
48.3584,723.4081
48.3694,685.3899
48.3804,681.7125
48.3914,688
48.4024,716.282
48.4134,724.7876
48.4244,721.7507
48.4354,739.2893
48.4464,720.221
48.4574,671.3084
48.4684,683.9678
48.4794,688.3776
48.4904,722.5873
48.5014,697.4038
48.5124,702.0252
48.5234,683.3509
48.5344,714.9069
48.5454,732.3895
48.5564,736.6918
48.5674,676.0605
48.5784,728.0757
48.5894,721.7905
48.6004,665.1613
48.6114,693.6374
48.6224,654.218
48.6334,724.7803
48.6444,707.0839
48.6554,672.7874
48.6664,647.6334
48.6774,727.0325
48.6884,726.7918
48.6994,699.0037
48.7104,671.061
48.7214,734.1028
48.7324,678.6244
48.7434,680.3101
48.7544,722.8671
48.7654,705.9537
48.7764,691.8462
48.7874,656.3022
48.7984,696.503
48.8094,693.6015
48.8204,677.843
48.8314,704.978
48.8424,673.5888
48.8534,691.8355
48.8644,675.4842
48.8754,716.1798
48.8864,711.5755
48.8974,722.973
48.9084,698.819
48.9194,729.2457
48.9304,722.9333
48.9414,729.1591
48.9524,702.8464
48.9634,713.4017
48.9744,723.0184
48.9854,681.3624
48.9964,732.7779
49.0074,733.7667
49.0184,719.8943
49.0294,729.1092
49.0404,712.7828
49.0514,694.7091
49.0624,695.5834
49.0734,679.5251
49.0844,699.4634
49.0954,691.029
49.1064,674.307
49.1174,691.1928
49.1284,682.6631
49.1394,686.2657
49.1504,654.8052
49.1614,643.3572
49.1724,654.1445
49.1834,672.7181
49.1944,703.8635
49.2054,673.5423
49.2164,669.311
49.2274,679.706
49.2384,667.7919
49.2494,673.417
49.2604,663.9546
49.2714,643.7727
49.2824,669.1724
49.2934,716.5962
49.3044,732.1991
49.3154,709.1492
49.3264,729.0322
49.3374,750.3187
49.3484,718.0183
49.3594,759.6426
49.3704,704.4227
49.3814,698.6481
49.3924,750.0511
49.4034,689.1321
49.4144,728.2133
49.4254,717.8986
49.4364,676.2563
49.4474,709.3917
49.4584,705.8539
49.4694,761.8795
49.4804,736.3198
49.4914,732.116
49.5024,753.9486
49.5134,756.9332
49.5244,780.4928
49.5354,792.8939
49.5464,816.1414
49.5574,857.0944
49.5684,862.8598
49.5794,860.9435
49.5904,931.8418
49.6014,950.1803
49.6124,1005.1863
49.6234,1117.7741
49.6344,1160.9613
49.6454,1311.8213
49.6564,1490.0954
49.6674,1716.4368
49.6784,1785.3581
49.6894,2055.0539
49.7004,2300.1145
49.7114,2627.1768
49.7224,2954.017
49.7334,3132.5505
49.7444,3338.4244
49.7554,3347.9687
49.7664,3065.8167
49.7774,2657.6082
49.7884,2350.5122
49.7994,2068.0154
49.8104,1890.9168
49.8214,1951.5599
49.8324,1904.646
49.8434,1896.6114
49.8544,1911.7171
49.8654,1948.7281
49.8764,1813.0488
49.8874,1573.4181
49.8984,1351.441
49.9094,1176.3687
49.9204,1010.8883
49.9314,909.1773
49.9424,886.6369
49.9534,798.259
49.9644,787.0536
49.9754,793.9976
49.9864,738.7503
49.9974,739.8913
50.0084,771.7164
50.0194,736.5707
50.0304,723.8587
50.0414,725.1905
50.0524,713.8442
50.0634,710.1887
50.0744,697.0987
50.0854,721.2855
50.0964,731.112
50.1074,658.189
50.1184,680.0455
50.1294,696.3184
50.1404,698.3418
50.1514,699.9233
50.1624,693.8495
50.1734,725.7939
50.1844,721.3754
50.1954,670.2827
50.2064,625.8453
50.2174,672.4903
50.2284,629.7604
50.2394,646.0003
50.2504,669.4313
50.2614,677.8142
50.2724,660.2628
50.2834,659.3078
50.2944,686.0165
50.3054,673.1178
50.3164,671.7276
50.3274,642.2121
50.3384,685.9739
50.3494,602.8311
50.3604,594.826
50.3714,637.5628
50.3824,672.8774
50.3934,654.1031
50.4044,663.5837
50.4154,705.901
50.4264,610.3001
50.4374,637.9717
50.4484,669.0792
50.4594,675.3862
50.4704,650.7539
50.4814,667.8195
50.4924,604.7581
50.5034,601.7277
50.5144,612.0207
50.5254,620.4688
50.5364,602.4822
50.5474,647.6097
50.5584,651.7315
50.5694,655.4211
50.5804,676.201
50.5914,634.7411
50.6024,700.18
50.6134,649.8475
50.6244,641.4159
50.6354,638.5947
50.6464,615.5583
50.6574,599.3248
50.6684,626.2857
50.6794,625.4197
50.6904,616.0989
50.7014,630.7622
50.7124,639.9551
50.7234,638.9738
50.7344,661.4044
50.7454,625.1845
50.7564,618.949
50.7674,658.6449
50.7784,669.1829
50.7894,685.8137
50.8004,643.2889
50.8114,633.1692
50.8224,637.7124
50.8334,632.0265
50.8444,640.6138
50.8554,657.9322
50.8664,642.7352
50.8774,630.3973
50.8884,632.9823
50.8994,651.6404
50.9104,668.8348
50.9214,668.1593
50.9324,644.6024
50.9434,623.4356
50.9544,637.9943
50.9654,637.2201
50.9764,641.0257
50.9874,646.5457
50.9984,639.9931
51.0094,635.7237
51.0204,636.3009
51.0314,626.3961
51.0424,618.9749
51.0534,645.4929
51.0644,624.4185
51.0754,652.7143
51.0864,629.445
51.0974,579.3851
51.1084,646.3706
51.1194,640.274
51.1304,616.8529
51.1414,617.7139
51.1524,617.4041
51.1634,645.3582
51.1744,644.5973
51.1854,608.7725
51.1964,623.1777
51.2074,622.703
51.2184,621.1283
51.2294,645.7515
51.2404,620.3193
51.2514,638.8055
51.2624,630.8706
51.2734,598.2731
51.2844,623.4176
51.2954,647.0277
51.3064,639.2698
51.3174,684.1862
51.3284,605.432
51.3394,605.3239
51.3504,651.4821
51.3614,623.7096
51.3724,585.2692
51.3834,613.5606
51.3944,624.572
51.4054,648.5804
51.4164,672.9819
51.4274,623.2635
51.4384,619.7027
51.4494,634.8079
51.4604,605.6837
51.4714,643.2421
51.4824,646.9993
51.4934,583.6217
51.5044,614.3825
51.5154,611.7255
51.5264,602.7702
51.5374,628.0343
51.5484,614.1533
51.5594,600.9892
51.5704,603.0351
51.5814,614.7816
51.5924,616.2396
51.6034,646.9807
51.6144,652.495
51.6254,611.079
51.6364,635.3225
51.6474,637.8614
51.6584,631.1934
51.6694,613.7612
51.6804,627.7154
51.6914,622.3951
51.7024,626.5623
51.7134,650.4513
51.7244,629.5169
51.7354,610.1456
51.7464,633.3897
51.7574,647.9428
51.7684,621.4953
51.7794,597.0176
51.7904,625.736
51.8014,640.1679
51.8124,639.0622
51.8234,649.1661
51.8344,651.5999
51.8454,644.5544
51.8564,623.724
51.8674,629.9215
51.8784,634.5176
51.8894,640.3217
51.9004,634.5928
51.9114,618.9556
51.9224,644.2826
51.9334,642.5642
51.9444,611.4643
51.9554,598.9144
51.9664,612.1496
51.9774,590.6487
51.9884,614.407
51.9994,637.421
52.0104,591.8181
52.0214,612.14
52.0324,621.4375
52.0434,623.3806
52.0544,597.4083
52.0654,591
52.0764,621.7245
52.0874,589.2366
52.0984,634.1534
52.1094,597.035
52.1204,586.4818
52.1314,635.9434
52.1424,628.4379
52.1534,651.7436
52.1644,660.501
52.1754,612.0674
52.1864,580.4009
52.1974,662.041
52.2084,592.6366
52.2194,633.5775
52.2304,610.0518
52.2414,630.085
52.2524,569.6221
52.2634,593.6916
52.2744,634.019
52.2854,615.2969
52.2964,606.1432
52.3074,624.7792
52.3184,673.0928
52.3294,663.1906
52.3404,643.2327
52.3514,611.1224
52.3624,654.802
52.3734,616.1093
52.3844,630.3163
52.3954,638.1531
52.4064,613.1597
52.4174,645.3489
52.4284,627.3289
52.4394,629.0119
52.4504,633.5582
52.4614,600.4432
52.4724,583.9117
52.4834,609.2619
52.4944,640.8924
52.5054,641.1415
52.5164,632.1695
52.5274,641.0565
52.5384,652.3106
52.5494,603.7945
52.5604,598.4624
52.5714,596.6551
52.5824,631.6439
52.5934,630.7399
52.6044,597
52.6154,629.0163
52.6264,646.5281
52.6374,616.9145
52.6484,620.8172
52.6594,630.7454
52.6704,645.9057
52.6814,623.1096
52.6924,629.3083
52.7034,651.3184
52.7144,622.5287
52.7254,652.5562
52.7364,652.0894
52.7474,637.9235
52.7584,640.8908
52.7694,631.7669
52.7804,642.5744
52.7914,647.2241
52.8024,607.7871
52.8134,607.9245
52.8244,637.6531
52.8354,585.2588
52.8464,597.4459
52.8574,620.2183
52.8684,625.5767
52.8794,628.4553
52.8904,631.2198
52.9014,658.3277
52.9124,619.6003
52.9234,617.4288
52.9344,634.4146
52.9454,659.6374
52.9564,663.3726
52.9674,677.8674
52.9784,696.9269
52.9894,677.8857
53.0004,612.7384
53.0114,680.8867
53.0224,635.205
53.0334,634.298
53.0444,620.4079
53.0554,600.5141
53.0664,650.5123
53.0774,648.3067
53.0884,650.8835
53.0994,613.0351
53.1104,607.0712
53.1214,655.904
53.1324,586.372
53.1434,622.3846
53.1544,636.4861
53.1654,569.3131
53.1764,615.5835
53.1874,608.8564
53.1984,608.5134
53.2094,627.4093
53.2204,646.9575
53.2314,622.9676
53.2424,633.3311
53.2534,658.3473
53.2644,677.3687
53.2754,661.2413
53.2864,605.7491
53.2974,648.6554
53.3084,698.5161
53.3194,681.3252
53.3304,653.3053
53.3414,661.9738
53.3524,695.7438
53.3634,686.6782
53.3744,660.3504
53.3854,654.5163
53.3964,658.4202
53.4074,653.3994
53.4184,670.6083
53.4294,686.7907
53.4404,694.9366
53.4514,690.7994
53.4624,706.3323
53.4734,706.3002
53.4844,677.1823
53.4954,712.8231
53.5064,712.4354
53.5174,693.9517
53.5284,682.7359
53.5394,679.5349
53.5504,705.734
53.5614,728.1444
53.5724,767.1817
53.5834,804.2575
53.5944,783.8892
53.6054,819.3409
53.6164,863.9603
53.6274,900.6789
53.6384,962.8462
53.6494,1038.805
53.6604,1124.6261
53.6714,1243.538
53.6824,1319.4959
53.6934,1427.9393
53.7044,1635.2743
53.7154,1873.5133
53.7264,2059.4998
53.7374,2229.7369
53.7484,2286.0959
53.7594,2266.3832
53.7704,2044.6519
53.7814,1763.6782
53.7924,1546.1798
53.8034,1433.1527
53.8144,1336.5346
53.8254,1297.5219
53.8364,1304.9544
53.8474,1370.3123
53.8584,1359.5322
53.8694,1399.027
53.8804,1465.5365
53.8914,1318.0516
53.9024,1176.196
53.9134,983.2835
53.9244,871.3664
53.9354,807.4528
53.9464,806.5994
53.9574,745.4773
53.9684,683.3884
53.9794,731.6642
53.9904,702.0218
54.0014,664.6909
54.0124,693.8085
54.0234,658.4978
54.0344,576.0929
54.0454,686.9572
54.0564,623.4118
54.0674,656.4319
54.0784,677.6992
54.0894,633.0355
54.1004,640.8625
54.1114,603.4398
54.1224,629.7372
54.1334,600.2337
54.1444,580.1354
54.1554,653.0796
54.1664,648.3314
54.1774,642.5247
54.1884,615.0401
54.1994,633.4538
54.2104,598.7428
54.2214,634.3656
54.2324,623.1972
54.2434,629.769
54.2544,641.9603
54.2654,655.4868
54.2764,653.6305
54.2874,636.3098
54.2984,633.9781
54.3094,618.184
54.3204,630.6622
54.3314,606.5461
54.3424,579.3057
54.3534,607.6254
54.3644,620.1556
54.3754,632.2171
54.3864,634.226
54.3974,654.7286
54.4084,646.8947
54.4194,628.2387
54.4304,607.1685
54.4414,603.2026
54.4524,590.5602
54.4634,593.8873
54.4744,604.254
54.4854,607.1418
54.4964,617.7935
54.5074,592.038
54.5184,596.4782
54.5294,607.5731
54.5404,587.4103
54.5514,615.1362
54.5624,588.0892
54.5734,552.7591
54.5844,560.8585
54.5954,602.7674
54.6064,574.3573
54.6174,575.785
54.6284,621.732
54.6394,572.4387
54.6504,575.0859
54.6614,592.3127
54.6724,640.7891
54.6834,594.0701
54.6944,611.2944
54.7054,590.978
54.7164,570.0766
54.7274,589.9835
54.7384,559.7828
54.7494,578.782
54.7604,605.7352
54.7714,594.0077
54.7824,600.3939
54.7934,588.1395
54.8044,580.7286
54.8154,562.1827
54.8264,592.5136
54.8374,575.8602
54.8484,554.5175
54.8594,578.3808
54.8704,552.3827
54.8814,578.0091
54.8924,582.9076
54.9034,591.9027
54.9144,580.9807
54.9254,567.6556
54.9364,543.6777
54.9474,570.9945
54.9584,619.8351
54.9694,596.0489
54.9804,566.1725
54.9914,556.3501
55.0024,561.9962
55.0134,582.4663
55.0244,601.8756
55.0354,599.9065
55.0464,592.5531
55.0574,593.5479
55.0684,603.8428
55.0794,574.4783
55.0904,608.6688
55.1014,577.527
55.1124,571.5546
55.1234,561.5395
55.1344,540.1826
55.1454,569.3838
55.1564,596.2811
55.1674,591.5576
55.1784,591.7742
55.1894,568.6635
55.2004,563.1631
55.2114,576.9996
55.2224,558.3321
55.2334,582.8006
55.2444,603.8852
55.2554,600.2572
55.2664,568.026
55.2774,593.9033
55.2884,627.6124
55.2994,624.2017
55.3104,616.7976
55.3214,598.1063
55.3324,600.6573
55.3434,589.8258
55.3544,592.3419
55.3654,624.7221
55.3764,622.7386
55.3874,605.71
55.3984,604.6617
55.4094,564.9522
55.4204,567.178
55.4314,615.904
55.4424,597.3298
55.4534,600.376
55.4644,599.9029
55.4754,559.7253
55.4864,560.2967
55.4974,585.0169
55.5084,605.6388
55.5194,605.9026
55.5304,611.9672
55.5414,570.3652
55.5524,548.8569
55.5634,570.5263
55.5744,564.2211
55.5854,589.0495
55.5964,586.7835
55.6074,579.1209
55.6184,584.3049
55.6294,569.992
55.6404,588.7554
55.6514,550.2758
55.6624,616.3548
55.6734,591.92
55.6844,582.4144
55.6954,560.1463
55.7064,583.5932
55.7174,570.8229
55.7284,593.5976
55.7394,559.9908
55.7504,559.8068
55.7614,603.6032
55.7724,557.0305
55.7834,571.5321
55.7944,571.0152
55.8054,560.0324
55.8164,538.8972
55.8274,529.4283
55.8384,592.7784
55.8494,558.2311
55.8604,563.7022
55.8714,577.1242
55.8824,600.1804
55.8934,548.9077
55.9044,570.338
55.9154,589.1223
55.9264,531.2743
55.9374,572.2061
55.9484,541.5674
55.9594,587.4186
55.9704,565.4427
55.9814,586.5131
55.9924,568.9099
56.0034,551.106
56.0144,544.9883
56.0254,578.9699
56.0364,535.3793
56.0474,560.954
56.0584,570.2086
56.0694,560.4783
56.0804,594.348
56.0914,570.4853
56.1024,546.5386
56.1134,574.8714
56.1244,586.6975
56.1354,573.7079
56.1464,554.011
56.1574,532.5615
56.1684,550.7039
56.1794,578.1495
56.1904,573.7461
56.2014,558.6814
56.2124,564.6811
56.2234,580.9618
56.2344,586.618
56.2454,593.2853
56.2564,587.9702
56.2674,558.1148
56.2784,551.8836
56.2894,573.5224
56.3004,578.2978
56.3114,582.6865
56.3224,579.5052
56.3334,569.8259
56.3444,573.7946
56.3554,547.031
56.3664,559.1951
56.3774,572.2743
56.3884,571.5939
56.3994,563.0884
56.4104,572.1344
56.4214,564.6075
56.4324,560.7906
56.4434,558.4503
56.4544,559.1667
56.4654,564.4071
56.4764,584.6703
56.4874,578.0952
56.4984,552.4009
56.5094,566.3758
56.5204,585.5316
56.5314,583.3421
56.5424,568.871
56.5534,585.1556
56.5644,599.9868
56.5754,584.8513
56.5864,568.0844
56.5974,560.7079
56.6084,593.0893
56.6194,546.2306
56.6304,544.6756
56.6414,582.2472
56.6524,549.1481
56.6634,524.0617
56.6744,551.0735
56.6854,606.8992
56.6964,575.2431
56.7074,531.2807
56.7184,586.7776
56.7294,517.059
56.7404,518.164
56.7514,498.8918
56.7624,500.5845
56.7734,550.764
56.7844,545.0892
56.7954,518.8911
56.8064,546.0798
56.8174,560.5938
56.8284,551.8408
56.8394,555.9331
56.8504,543.7411
56.8614,519.08
56.8724,546.8891
56.8834,522.581
56.8944,522.4104
56.9054,549.5366
56.9164,524
56.9274,545.8149
56.9384,592.3243
56.9494,550.1872
56.9604,562.619
56.9714,541.0958
56.9824,567.1316
56.9934,565.6287
57.0044,576.4872
57.0154,542.6981
57.0264,537.134
57.0374,520.1425
57.0484,513.1578
57.0594,536.1067
57.0704,557.3262
57.0814,536.0805
57.0924,528.4351
57.1034,542.8695
57.1144,555.8628
57.1254,551.472
57.1364,580.5723
57.1474,595.6064
57.1584,579.4911
57.1694,549.8156
57.1804,537.4029
57.1914,539.0854
57.2024,550.6468
57.2134,580.1172
57.2244,571.3566
57.2354,550.2664
57.2464,554.715
57.2574,582.0623
57.2684,575.4152
57.2794,547.8985
57.2904,584.2882
57.3014,634.077
57.3124,642.9144
57.3234,648.6255
57.3344,613.1967
57.3454,630.0191
57.3564,588.2427
57.3674,551.6675
57.3784,570.1497
57.3894,547.3212
57.4004,553.5852
57.4114,559.5831
57.4224,560.8038
57.4334,574.8743
57.4444,558.9462
57.4554,567.6108
57.4664,591.3252
57.4774,604.5183
57.4884,594.5913
57.4994,552.9553
57.5104,567.8478
57.5214,558.112
57.5324,530.1241
57.5434,532.6952
57.5544,531.0973
57.5654,547.3817
57.5764,587.0367
57.5874,535.6249
57.5984,563.9855
57.6094,535.4477
57.6204,570.7525
57.6314,599.5141
57.6424,583.0268
57.6534,510.4695
57.6644,562.6288
57.6754,556.1827
57.6864,537.1977
57.6974,543.7782
57.7084,578.5445
57.7194,558.3425
57.7304,583.1881
57.7414,564.756
57.7524,558.695
57.7634,570.1015
57.7744,507.6891
57.7854,550.7291
57.7964,583.913
57.8074,546.6382
57.8184,545.5956
57.8294,551.8613
57.8404,598.3678
57.8514,535.3278
57.8624,562.2271
57.8734,559.8467
57.8844,554.0779
57.8954,537.653
57.9064,549.0679
57.9174,552.2861
57.9284,553.9539
57.9394,563.1968
57.9504,568.0309
57.9614,560.9389
57.9724,569.2255
57.9834,582.5397
57.9944,580.6447
58.0054,580.8051
58.0164,563.9866
58.0274,533.447
58.0384,534.5914
58.0494,552.4246
58.0604,564.1523
58.0714,580.8839
58.0824,577.9174
58.0934,560.3921
58.1044,560.5813
58.1154,583.1418
58.1264,561.886
58.1374,583.1934
58.1484,570.4065
58.1594,514.8875
58.1704,534.7385
58.1814,546.2211
58.1924,533.0294
58.2034,562.8254
58.2144,542.4936
58.2254,563.8589
58.2364,516.509
58.2474,553.4079
58.2584,565.1926
58.2694,545.9949
58.2804,530.3244
58.2914,537.8477
58.3024,550.4455
58.3134,569.7878
58.3244,590.2342
58.3354,565.16
58.3464,560.6726
58.3574,562.6972
58.3684,556.9739
58.3794,533.2977
58.3904,574.2728
58.4014,588.0797
58.4124,532.5776
58.4234,534.3786
58.4344,585.4695
58.4454,588.0531
58.4564,598.5512
58.4674,603.8575
58.4784,581.3729
58.4894,630.8038
58.5004,620.0251
58.5114,623.1239
58.5224,628.7694
58.5334,621.7286
58.5444,616.978
58.5554,633.3491
58.5664,642.1878
58.5774,682.8637
58.5884,627.9477
58.5994,663.7367
58.6104,680.4555
58.6214,663.317
58.6324,704.2731
58.6434,713.5925
58.6544,673.2631
58.6654,682.0837
58.6764,706.8914
58.6874,749.0883
58.6984,742.577
58.7094,762.4364
58.7204,757.4552
58.7314,797.4642
58.7424,818.9871
58.7534,841.5592
58.7644,839.5045
58.7754,889.2598
58.7864,931.8906
58.7974,1009.1147
58.8084,1086.5466
58.8194,1191.5881
58.8304,1311.5144
58.8414,1448.0191
58.8524,1619.3362
58.8634,1921.1476
58.8744,2301.3374
58.8854,2662.4722
58.8964,3163.7681
58.9074,3709.757
58.9184,4304.2573
58.9294,5022.6412
58.9404,5828.5076
58.9514,6682.529
58.9624,7358.0989
58.9734,7526.5004
58.9844,6986.1782
58.9954,6028.097
59.0064,5096.5702
59.0174,4191.4232
59.0284,3635.6871
59.0394,3284.1292
59.0504,3092.6415
59.0614,3144.4957
59.0724,3291.3053
59.0834,3551.5358
59.0944,3800.826
59.1054,3952.4406
59.1164,3855.5434
59.1274,3502.0738
59.1384,3029.0309
59.1494,2444.074
59.1604,1931.9514
59.1714,1537.802
59.1824,1272.0347
59.1934,1062.4593
59.2044,972.8903
59.2154,902.0682
59.2264,835.5471
59.2374,794.8846
59.2484,767.0519
59.2594,691.9147
59.2704,716.4871
59.2814,688.5208
59.2924,638.4405
59.3034,689.1481
59.3144,712.4402
59.3254,691.6753
59.3364,633.4508
59.3474,709.2466
59.3584,682.0538
59.3694,654.5573
59.3804,660.9416
59.3914,609.3115
59.4024,686.8961
59.4134,620.9413
59.4244,652.2653
59.4354,634.5751
59.4464,628.1772
59.4574,647.0199
59.4684,669.2904
59.4794,650.4659
59.4904,641.0097
59.5014,668.1944
59.5124,649.7921
59.5234,703.1488
59.5344,733.1461
59.5454,738.2959
59.5564,728.2209
59.5674,702.009
59.5784,697.8203
59.5894,630.569
59.6004,606.1874
59.6114,612.9972
59.6224,623.3103
59.6334,616.3005
59.6444,604.9116
59.6554,647.2989
59.6664,648.9337
59.6774,638.3831
59.6884,622.7456
59.6994,633.2092
59.7104,617.685
59.7214,621.5279
59.7324,602.0661
59.7434,576.6439
59.7544,582.9723
59.7654,598.8287
59.7764,561.6499
59.7874,537.1605
59.7984,544.578
59.8094,554.8981
59.8204,575
59.8314,563.106
59.8424,560.1418
59.8534,559.1168
59.8644,568.636
59.8754,571.926
59.8864,563.2282
59.8974,560.4454
59.9084,558.7449
59.9194,534.4617
59.9304,527.3055
59.9414,542.6589
59.9524,544.8461
59.9634,568.7231
59.9744,554.8192
59.9854,529.9851
59.9964,534.5193
60.0074,566.6897
60.0184,565.6139
60.0294,542.0794
60.0404,556.1443
60.0514,559.5516
60.0624,517.3004
60.0734,577.5348
60.0844,560.3078
60.0954,530.8169
60.1064,542.0572
60.1174,555.7818
60.1284,558.8274
60.1394,557.3205
60.1504,534.8473
60.1614,515.4423
60.1724,543.6813
60.1834,556.889
60.1944,511.1382
60.2054,578.165
60.2164,557.2269
60.2274,590.6464
60.2384,507.4682
60.2494,539.5805
60.2604,508.8271
60.2714,483.3193
60.2824,505.9889
60.2934,524.5749
60.3044,489.2169
60.3154,497.5269
60.3264,488.3104
60.3374,552.2074
60.3484,538.1684
60.3594,512.9467
60.3704,490.5108
60.3814,488.9737
60.3924,517.0401
60.4034,539.1293
60.4144,494.853
60.4254,499.8942
60.4364,529.4557
60.4474,518.6901
60.4584,501.8421
60.4694,497.3778
60.4804,514.883
60.4914,517.0678
60.5024,517.1894
60.5134,528.5458
60.5244,521.9332
60.5354,503.5707
60.5464,530.644
60.5574,523.1592
60.5684,512.9374
60.5794,508.6158
60.5904,515.0026
60.6014,492.2202
60.6124,507.7807
60.6234,523.6368
60.6344,484.8222
60.6454,482.61
60.6564,512.4264
60.6674,520
60.6784,519.116
60.6894,523.9057
60.7004,505.8048
60.7114,478.4366
60.7224,502.5934
60.7334,519.9586
60.7444,515.5472
60.7554,515.4159
60.7664,504.2742
60.7774,483.2899
60.7884,465.6562
60.7994,491.1687
60.8104,508.6946
60.8214,483.3359
60.8324,502.7739
60.8434,503.3301
60.8544,484.6135
60.8654,503.1321
60.8764,515
60.8874,501.4895
60.8984,479.1802
60.9094,486.0022
60.9204,505.5356
60.9314,494.3321
60.9424,496.1068
60.9534,463.0349
60.9644,513.4482
60.9754,460.2577
60.9864,477.5211
60.9974,511.9531
61.0084,518
61.0194,506.4777
61.0304,484.7879
61.0414,481
61.0524,513.6759
61.0634,527.7218
61.0744,502.4658
61.0854,460.4391
61.0964,470.5449
61.1074,493.191
61.1184,466.9909
61.1294,470.6756
61.1404,493.9973
61.1514,462.9731
61.1624,499.3465
61.1734,505.9706
61.1844,508.1108
61.1954,521.9572
61.2064,471.886
61.2174,527.2297
61.2284,488.2083
61.2394,478.3043
61.2504,521.0529
61.2614,498.2526
61.2724,491.9514
61.2834,501.18
61.2944,505.3094
61.3054,473.4297
61.3164,469.3805
61.3274,465.4985
61.3384,475.0238
61.3494,526.3567
61.3604,508.9596
61.3714,500.351
61.3824,505.3159
61.3934,525.6635
61.4044,508.9615
61.4154,500.2655
61.4264,497.111
61.4374,489.0305
61.4484,492.7905
61.4594,494.4052
61.4704,499.0957
61.4814,503.5874
61.4924,521.454
61.5034,500.5447
61.5144,502.1373
61.5254,500.0666
61.5364,501.2265
61.5474,504.5895
61.5584,497.4134
61.5694,524.1249
61.5804,502.3063
61.5914,490.4024
61.6024,497.9344
61.6134,496.7878
61.6244,490.0292
61.6354,480.6245
61.6464,503.2791
61.6574,509.8897
61.6684,504.741
61.6794,518.7701
61.6904,526.8545
61.7014,519.5643
61.7124,507.8317
61.7234,481.0527
61.7344,485.6581
61.7454,507.1476
61.7564,519.4652
61.7674,519.0471
61.7784,500.8936
61.7894,483.4325
61.8004,498.4791
61.8114,483.6368
61.8224,497.0485
61.8334,504.5349
61.8444,510.7036
61.8554,504.6715
61.8664,534.316
61.8774,535.4011
61.8884,475.8312
61.8994,498.8962
61.9104,488.3537
61.9214,488.1544
61.9324,477.1955
61.9434,489.5429
61.9544,505.8841
61.9654,509.7601
61.9764,466.2753
61.9874,488.1389
61.9984,502.0031
62.0094,494.6371
62.0204,517.5376
62.0314,442.6964
62.0424,490.2026
62.0534,492.9784
62.0644,504.888
62.0754,487.0385
62.0864,499.9085
62.0974,493.2564
62.1084,469.2705
62.1194,522.2278
62.1304,491.2239
62.1414,507.5426
62.1524,492.4029
62.1634,510.315
62.1744,458.2691
62.1854,513.4896
62.1964,501.8947
62.2074,493.4955
62.2184,493.6254
62.2294,531.6988
62.2404,502.1873
62.2514,498.4088
62.2624,487.8406
62.2734,510.0498
62.2844,498.061
62.2954,522.0732
62.3064,481.6993
62.3174,504.5677
62.3284,523.7156
62.3394,509.4897
62.3504,506.7953
62.3614,493.3225
62.3724,483.9555
62.3834,471.9835
62.3944,479.0932
62.4054,485.443
62.4164,514.6242
62.4274,490.5453
62.4384,481.7083
62.4494,487.0075
62.4604,473.6629
62.4714,496.1359
62.4824,478.4167
62.4934,465.441
62.5044,477.0837
62.5154,470.8812
62.5264,498.7275
62.5374,497.3477
62.5484,483.1259
62.5594,499.1379
62.5704,470.9639
62.5814,469.6908
62.5924,505.1934
62.6034,503.9202
62.6144,486.106
62.6254,498.7604
62.6364,517.9278
62.6474,492.4637
62.6584,493.6684
62.6694,501
62.6804,494.5683
62.6914,498.9126
62.7024,526.6242
62.7134,511.9456
62.7244,474.331
62.7354,481.7701
62.7464,518.8613
62.7574,524.41
62.7684,501.2357
62.7794,477.6291
62.7904,488.2357
62.8014,461.8757
62.8124,494.6701
62.8234,487.9025
62.8344,506.2761
62.8454,516.0433
62.8564,469.7163
62.8674,486.9737
62.8784,440.4886
62.8894,517.1248
62.9004,496.3316
62.9114,516.4899
62.9224,487.6201
62.9334,509.0799
62.9444,492.4688
62.9554,503.8349
62.9664,471.0483
62.9774,484.7727
62.9884,464.2312
62.9994,473.8938
63.0104,470.6661
63.0214,466.3996
63.0324,502.9158
63.0434,489.6766
63.0544,495.1596
63.0654,476.581
63.0764,470.5865
63.0874,508.5927
63.0984,490.6636
63.1094,478.8998
63.1204,492.4122
63.1314,514.487
63.1424,525.3366
63.1534,479.5816
63.1644,520.6593
63.1754,510.0044
63.1864,461.6242
63.1974,451.1595
63.2084,485.6742
63.2194,526.2191
63.2304,521.925
63.2414,537.0245
63.2524,528.3181
63.2634,518.097
63.2744,485.7195
63.2854,495.108
63.2964,520.455
63.3074,486.2845
63.3184,505.6489
63.3294,506.0414
63.3404,496.5921
63.3514,502.0095
63.3624,530.5028
63.3734,510.1207
63.3844,506.7775
63.3954,526.6019
63.4064,522.7652
63.4174,524.5765
63.4284,529.7048
63.4394,528.4328
63.4504,554.8769
63.4614,537.9021
63.4724,516.0753
63.4834,522.8811
63.4944,499.1058
63.5054,508.6366
63.5164,502.4765
63.5274,497.0061
63.5384,524.6808
63.5494,540.8998
63.5604,506.5761
63.5714,521.7271
63.5824,523.5765
63.5934,543.5668
63.6044,522.9863
63.6154,499.8681
63.6264,501.888
63.6374,515.9726
63.6484,492.6191
63.6594,536.5553
63.6704,500.1793
63.6814,545.809
63.6924,578.0046
63.7034,578.7119
63.7144,502.9106
63.7254,519.3249
63.7364,530.1535
63.7474,531
63.7584,515.0972
63.7694,509.4169
63.7804,495.3789
63.7914,543.6997
63.8024,476.1856
63.8134,552.2654
63.8244,492.8651
63.8354,516.1773
63.8464,544.4909
63.8574,536.053
63.8684,501.2433
63.8794,538.6635
63.8904,522.0844
63.9014,555.3509
63.9124,542.278
63.9234,559.9286
63.9344,508.889
63.9454,566.0168
63.9564,570.3446
63.9674,523.1702
63.9784,531.2241
63.9894,532.2305
64.0004,566.1526
64.0114,542.341
64.0224,527.5722
64.0334,518.9016
64.0444,514.0612
64.0554,526.1237
64.0664,512.9106
64.0774,522.4781
64.0884,544.7656
64.0994,549.7355
64.1104,532.3917
64.1214,504.9003
64.1324,542.1917
64.1434,534.5495
64.1544,524.0663
64.1654,526.4565
64.1764,533.5351
64.1874,535.9563
64.1984,565.373
64.2094,547.8641
64.2204,556.9843
64.2314,574.3438
64.2424,550.3028
64.2534,551.4927
64.2644,558.2444
64.2754,571.1457
64.2864,561.2208
64.2974,548.6581
64.3084,584.408
64.3194,572.7869
64.3304,568.7897
64.3414,570.8589
64.3524,562.6802
64.3634,572.3215
64.3744,599.0177
64.3854,588.4596
64.3964,592.8367
64.4074,626.8252
64.4184,607.1942
64.4294,611.1636
64.4404,621.4179
64.4514,624.6048
64.4624,581.432
64.4734,599.2622
64.4844,598.5484
64.4954,619.6936
64.5064,642.07
64.5174,672.3366
64.5284,676.0491
64.5394,677.7808
64.5504,725.8752
64.5614,751.7111
64.5724,752.6209
64.5834,824.4788
64.5944,877.9749
64.6054,992.2275
64.6164,1142.8555
64.6274,1239.6311
64.6384,1418.4208
64.6494,1545.0926
64.6604,1821.9504
64.6714,1995.8728
64.6824,2253.7239
64.6934,2722.4788
64.7044,3228.2013
64.7154,3821.1122
64.7264,4022.7186
64.7374,4041.7061
64.7484,3586.7446
64.7594,3054.6618
64.7704,2375.0621
64.7814,2093.2795
64.7924,1732.1826
64.8034,1610.6987
64.8144,1567.556
64.8254,1564.559
64.8364,1624.1066
64.8474,1799.7265
64.8584,1907.838
64.8694,2156.6127
64.8804,2266.2665
64.8914,2314.597
64.9024,2035.6482
64.9134,1757.7402
64.9244,1461.5822
64.9354,1226.9102
64.9464,1022.4311
64.9574,920.8124
64.9684,843.5725
64.9794,770.8931
64.9904,712.1166
65.0014,680.4591
65.0124,668.1533
65.0234,658.9213
65.0344,647.8149
65.0454,633.3569
65.0564,617.9789
65.0674,617.344
65.0784,671.1505
65.0894,663.1373
65.1004,656.022
65.1114,658.0261
65.1224,647.7487
65.1334,671.2211
65.1444,683.2865
65.1554,686.8884
65.1664,686.7508
65.1774,722.5046
65.1884,757.9544
65.1994,819.0852
65.2104,853.0118
65.2214,862.8094
65.2324,927.7626
65.2434,972.0294
65.2544,960.3391
65.2654,964.0778
65.2764,957.0882
65.2874,926.8738
65.2984,867.0779
65.3094,837
65.3204,787.952
65.3314,718.61
65.3424,714.9487
65.3534,760.9475
65.3644,775.6101
65.3754,762.9556
65.3864,742.5435
65.3974,723.1326
65.4084,754.3574
65.4194,719.9364
65.4304,724.0485
65.4414,714.1915
65.4524,670.9607
65.4634,645.8051
65.4744,614.7696
65.4854,593.3626
65.4964,628.7974
65.5074,564.9519
65.5184,533.9988
65.5294,556.0082
65.5404,512.7694
65.5514,532.608
65.5624,548.5891
65.5734,576.4339
65.5844,523.5717
65.5954,533.0415
65.6064,511.2387
65.6174,528.2529
65.6284,542.6216
65.6394,537.0884
65.6504,509.0685
65.6614,517.8524
65.6724,503.1328
65.6834,509.4475
65.6944,520.6919
65.7054,494.5311
65.7164,503.4278
65.7274,510.1703
65.7384,518.0142
65.7494,474.137
65.7604,497.2294
65.7714,481.1154
65.7824,510.1757
65.7934,520.0106
65.8044,506.8837
65.8154,508.0838
65.8264,461.8467
65.8374,506.87
65.8484,493.4067
65.8594,516.5582
65.8704,546.0169
65.8814,494.9256
65.8924,522.5552
65.9034,527.1531
65.9144,506.1224
65.9254,505.5241
65.9364,504.8774
65.9474,520.7058
65.9584,548.106
65.9694,505.77
65.9804,497.2789
65.9914,467.5356
66.0024,475.4519
66.0134,491.8422
66.0244,472.3862
66.0354,482.2949
66.0464,490.081
66.0574,476.7898
66.0684,471.9875
66.0794,499.985
66.0904,479.7053
66.1014,492.5668
66.1124,497.0178
66.1234,486.8389
66.1344,503.2288
66.1454,517.5065
66.1564,503.9859
66.1674,501.5046
66.1784,505.8873
66.1894,478.4076
66.2004,509.1321
66.2114,486.5507
66.2224,488.7444
66.2334,509.298
66.2444,505.3711
66.2554,496.938
66.2664,493.3141
66.2774,473.452
66.2884,463.5791
66.2994,444.9319
66.3104,471.8107
66.3214,475.7796
66.3324,473
66.3434,452.9309
66.3544,468.957
66.3654,493.3188
66.3764,520.6453
66.3874,491.5158
66.3984,481.5
66.4094,484.3825
66.4204,483.2841
66.4314,482.1298
66.4424,480.235
66.4534,495.2116
66.4644,481.5795
66.4754,498.3876
66.4864,488.8199
66.4974,524.8146
66.5084,480.1435
66.5194,453.7864
66.5304,477.5209
66.5414,464.0962
66.5524,512.8862
66.5634,492.5136
66.5744,519.59
66.5854,475.3956
66.5964,506.8363
66.6074,501.5925
66.6184,470.6916
66.6294,497.7016
66.6404,456.7637
66.6514,472.6962
66.6624,478
66.6734,476.875
66.6844,476.1164
66.6954,511.652
66.7064,517.1601
66.7174,504.5694
66.7284,506.5958
66.7394,495.7822
66.7504,467.6664
66.7614,481.5042
66.7724,464.5025
66.7834,462.047
66.7944,469.2042
66.8054,505.4755
66.8164,473.6956
66.8274,460.9969
66.8384,467.2243
66.8494,493.219
66.8604,469.8052
66.8714,485.8827
66.8824,519.0204
66.8934,499.7491
66.9044,497.3861
66.9154,506.4661
66.9264,499.4171
66.9374,473.2387
66.9484,487.5612
66.9594,496.8489
66.9704,462.6376
66.9814,476.4822
66.9924,487.5382
67.0034,457.5698
67.0144,452.7359
67.0254,454.0499
67.0364,455.2018
67.0474,484.314
67.0584,486.5839
67.0694,475.6676
67.0804,485.3124
67.0914,464.439
67.1024,459.0194
67.1134,473.9549
67.1244,483.801
67.1354,478.461
67.1464,476.0074
67.1574,459.9643
67.1684,461.0183
67.1794,471.3541
67.1904,459.634
67.2014,489.7989
67.2124,459.9129
67.2234,493.3311
67.2344,483.6737
67.2454,483.0178
67.2564,476.2875
67.2674,450.6742
67.2784,477.6651
67.2894,437.7516
67.3004,451.5539
67.3114,432.9555
67.3224,416.0131
67.3334,471.9535
67.3444,464.8636
67.3554,453.0707
67.3664,462.0645
67.3774,500.0899
67.3884,475.7534
67.3994,511.1214
67.4104,483.1123
67.4214,484.9292
67.4324,511.695
67.4434,455.0189
67.4544,475.1292
67.4654,557.5422
67.4764,502.7573
67.4874,520.3949
67.4984,491.4988
67.5094,515.3453
67.5204,533.5666
67.5314,547.5169
67.5424,528.0136
67.5534,553.1151
67.5644,556.6417
67.5754,529.8909
67.5864,540.3057
67.5974,579.5956
67.6084,633.5171
67.6194,610.3973
67.6304,541.5304
67.6414,544.4448
67.6524,555.0036
67.6634,492.5064
67.6744,497.7368
67.6854,507.2297
67.6964,487.2411
67.7074,494.1206
67.7184,482.2481
67.7294,501.0766
67.7404,513.6426
67.7514,541.1326
67.7624,536.4338
67.7734,542.0844
67.7844,526.6518
67.7954,518.7886
67.8064,513.0878
67.8174,500.9056
67.8284,510.5042
67.8394,500.3917
67.8504,478.8498
67.8614,465.8529
67.8724,456.6155
67.8834,471.1326
67.8944,455.4359
67.9054,469.6887
67.9164,486.882
67.9274,472.5386
67.9384,468.6491
67.9494,452.4775
67.9604,441.2081
67.9714,460.956
67.9824,451.4893
67.9934,458.313
68.0044,475.3949
68.0154,460.0764
68.0264,483.9258
68.0374,464.1115
68.0484,460.571
68.0594,461.1071
68.0704,469.2253
68.0814,451.8699
68.0924,459.7018
68.1034,471.9077
68.1144,447.7238
68.1254,457.3129
68.1364,446.7181
68.1474,454.6019
68.1584,433.2027
68.1694,441.6197
68.1804,490.3472
68.1914,495.8161
68.2024,499.2454
68.2134,420.7542
68.2244,443.82
68.2354,444.5703
68.2464,471.8455
68.2574,454.0578
68.2684,487.9901
68.2794,499.416
68.2904,460.209
68.3014,452.2418
68.3124,447.1401
68.3234,469.6384
68.3344,504.8799
68.3454,458.1506
68.3564,475.7191
68.3674,507.562
68.3784,467.4635
68.3894,494.9827
68.4004,446.4219
68.4114,454.726
68.4224,479.5908
68.4334,432.5019
68.4444,467.1325
68.4554,444.6823
68.4664,442.1947
68.4774,471.6514
68.4884,442.9619
68.4994,494.6478
68.5104,480.9084
68.5214,463.2731
68.5324,450.8808
68.5434,471.7699
68.5544,469.5457
68.5654,466.0187
68.5764,458.3211
68.5874,430.6756
68.5984,432.0845
68.6094,436.2423
68.6204,451.2514
68.6314,434.2401
68.6424,450.4072
68.6534,458.412
68.6644,464.2877
68.6754,477.1742
68.6864,469.116
68.6974,453.2826
68.7084,467.7107
68.7194,458.5605
68.7304,461.1219
68.7414,468.1241
68.7524,471.5092
68.7634,464.4759
68.7744,491.3634
68.7854,492.4734
68.7964,431.13
68.8074,433.7058
68.8184,461.1636
68.8294,437.7617
68.8404,438.2968
68.8514,438.9408
68.8624,448.7693
68.8734,447.6281
68.8844,426.3887
68.8954,445.8068
68.9064,471.5356
68.9174,477.648
68.9284,508.3732
68.9394,490.3711
68.9504,474.6849
68.9614,452.6909
68.9724,450.804
68.9834,423.6869
68.9944,461.9142
69.0054,446.4154
69.0164,438.7931
69.0274,453.1054
69.0384,442.9025
69.0494,457.2962
69.0604,429.6888
69.0714,444.1419
69.0824,451.4971
69.0934,477.3396
69.1044,447.7223
69.1154,493.2848
69.1264,471.0281
69.1374,462.5309
69.1484,483.7466
69.1594,440.9985
69.1704,447.2376
69.1814,432.9123
69.1924,473.0767
69.2034,459.519
69.2144,434.5037
69.2254,491.5444
69.2364,444.0976
69.2474,465.8662
69.2584,457.5938
69.2694,444.5783
69.2804,458
69.2914,456.8799
69.3024,444.2055
69.3134,482.7238
69.3244,490.2055
69.3354,491.3097
69.3464,479.6327
69.3574,439.072
69.3684,459.0635
69.3794,466.8064
69.3904,464.7033
69.4014,421.6289
69.4124,466.4186
69.4234,468.9041
69.4344,428
69.4454,434.901
69.4564,455.999
69.4674,444.0734
69.4784,418.4503
69.4894,434.8021
69.5004,475.1075
69.5114,469.4288
69.5224,459.1798
69.5334,441.8414
69.5444,474.0283
69.5554,451.6172
69.5664,440.5975
69.5774,472.742
69.5884,493.09
69.5994,464.8996
69.6104,475.0486
69.6214,485.2652
69.6324,489.2173
69.6434,481.3149
69.6544,460.5024
69.6654,466.4215
69.6764,443.0784
69.6874,450.2845
69.6984,452.4215
69.7094,442.1977
69.7204,445
69.7314,450.0178
69.7424,466.5361
69.7534,453.2975
69.7644,448.8881
69.7754,461.2469
69.7864,468.9519
69.7974,466.3185
69.8084,462.3564
69.8194,435.7655
69.8304,430.0178
69.8414,459.1764
69.8524,473.0782
69.8634,490.2156
69.8744,458.2649
69.8854,448.8369
69.8964,426.5173
69.9074,439.1173
69.9184,436.0357
69.9294,436.8939
69.9404,434.8357
69.9514,440.4268
69.9624,479.5197
69.9734,488.8279
69.9844,477.2368
69.9954,446.8669
70.0064,442
70.0174,457.7878
70.0284,486.6817
70.0394,489.0983
70.0504,437.8175
70.0614,517.2901
70.0724,469.5638
70.0834,466.9508
70.0944,467.9631
70.1054,457.2703
70.1164,466.8772
70.1274,509.9994
70.1384,459.7047
70.1494,436.6394
70.1604,460.3033
70.1714,419.2456
70.1824,479.7872
70.1934,449.1716
70.2044,488.1395
70.2154,478.8033
70.2264,473.1279
70.2374,444.3355
70.2484,460.0535
70.2594,459.3101
70.2704,485.0464
70.2814,463.3021
70.2924,488.425
70.3034,501.9033
70.3144,482.224
70.3254,490.0525
70.3364,459.6771
70.3474,485.2167
70.3584,443.4188
70.3694,441.9491
70.3804,461.3925
70.3914,480.0299
70.4024,487.7138
70.4134,462.1852
70.4244,478.0351
70.4354,476.7989
70.4464,505.7129
70.4574,512.5311
70.4684,525.0483
70.4794,527.6401
70.4904,518.3214
70.5014,530.4774
70.5124,538.7807
70.5234,528.3721
70.5344,538.0853
70.5454,539.0121
70.5564,539.181
70.5674,525.9332
70.5784,548.142
70.5894,564.9675
70.6004,578.2702
70.6114,560.7142
70.6224,534.4469
70.6334,539.654
70.6444,552.0877
70.6554,605.7885
70.6664,589.6136
70.6774,577.8952
70.6884,606.6714
70.6994,628.1438
70.7104,639.5601
70.7214,612.1322
70.7324,671.3621
70.7434,705.6234
70.7544,701.497
70.7654,752.754
70.7764,808.8088
70.7874,879.523
70.7984,947.2352
70.8094,1033.1092
70.8204,1127.7887
70.8314,1304.7544
70.8424,1462.0459
70.8534,1634.586
70.8644,1899.4068
70.8754,2159.6223
70.8864,2415.5677
70.8974,2761.1574
70.9084,3227.2664
70.9194,3595.0835
70.9304,3862.9035
70.9414,3969.0403
70.9524,4137.4002
70.9634,4094.018
70.9744,3796.6091
70.9854,3481.8402
70.9964,2991.2659
71.0074,2543.3667
71.0184,2176.5933
71.0294,1972.937
71.0404,1962.8823
71.0514,1860.6492
71.0624,1883.2668
71.0734,1958.533
71.0844,2062.1332
71.0954,2228.265
71.1064,2275.5185
71.1174,2381.5669
71.1284,2392.1532
71.1394,2176.1064
71.1504,2086.3811
71.1614,1868.6632
71.1724,1638.2404
71.1834,1381.5905
71.1944,1172.5868
71.2054,1024.4559
71.2164,898.8613
71.2274,788.1671
71.2384,773.0679
71.2494,728.2559
71.2604,663.5726
71.2714,619.052
71.2824,599.4714
71.2934,569.7544
71.3044,592.1395
71.3154,585.1495
71.3264,542.5702
71.3374,549.3987
71.3484,518.4573
71.3594,533.4281
71.3704,539.9996
71.3814,530.4369
71.3924,512.6136
71.4034,485.2691
71.4144,508.3626
71.4254,497.8014
71.4364,469.4653
71.4474,456.797
71.4584,509.2848
71.4694,530.0077
71.4804,507.1575
71.4914,492.4759
71.5024,472.1535
71.5134,472.0092
71.5244,462.4391
71.5354,446.8663
71.5464,453.0989
71.5574,458.3914
71.5684,464.271
71.5794,471.9794
71.5904,487.6944
71.6014,489.1769
71.6124,472.1546
71.6234,482.4615
71.6344,465.6962
71.6454,481.8471
71.6564,476.9968
71.6674,495.9473
71.6784,451.7543
71.6894,441.6894
71.7004,462.4255
71.7114,470.3098
71.7224,487.4265
71.7334,471.3429
71.7444,462.7728
71.7554,471.829
71.7664,474.8314
71.7774,492.7171
71.7884,493.4321
71.7994,496.473
71.8104,476.7475
71.8214,445.4293
71.8324,465.5332
71.8434,502.8618
71.8544,514.3674
71.8654,478.2621
71.8764,440.6913
71.8874,433.2005
71.8984,412.4437
71.9094,415.9646
71.9204,445.962
71.9314,434.8426
71.9424,426.1775
71.9534,467.242
71.9644,470.7901
71.9754,432.2333
71.9864,447.0664
71.9974,419.2487
72.0084,486.6896
72.0194,428.6045
72.0304,410.2527
72.0414,416.8529
72.0524,443.9811
72.0634,434.8354
72.0744,467.2768
72.0854,431
72.0964,427.7982
72.1074,421.5844
72.1184,446.2247
72.1294,443.9192
72.1404,444.4695
72.1514,470.5071
72.1624,452.2614
72.1734,447.003
72.1844,455.8797
72.1954,457.2318
72.2064,454.8589
72.2174,475.9407
72.2284,451.1336
72.2394,449.9177
72.2504,461.7669
72.2614,459.5379
72.2724,464.7774
72.2834,457.1373
72.2944,456.4326
72.3054,469.0263
72.3164,458.2297
72.3274,466.0404
72.3384,470.5885
72.3494,446.3082
72.3604,455.6665
72.3714,493.0443
72.3824,477.2916
72.3934,472.2353
72.4044,456.8756
72.4154,449.4703
72.4264,461.5688
72.4374,462.5811
72.4484,464.7803
72.4594,469.6343
72.4704,449.1338
72.4814,426.8061
72.4924,424.5704
72.5034,457.4342
72.5144,464.6596
72.5254,462.0384
72.5364,461.6165
72.5474,470.8566
72.5584,447.063
72.5694,439.6431
72.5804,435.0727
72.5914,450.3238
72.6024,485.0889
72.6134,483.8887
72.6244,447.8166
72.6354,436.5929
72.6464,469.4012
72.6574,481.1348
72.6684,451.7872
72.6794,470.6945
72.6904,441.3108
72.7014,443.0089
72.7124,389.8071
72.7234,443.3469
72.7344,451.826
72.7454,454.7758
72.7564,462.5006
72.7674,495.2954
72.7784,455.6273
72.7894,455.9489
72.8004,461.9204
72.8114,450.0117
72.8224,483.5585
72.8334,445.8736
72.8444,481.4615
72.8554,465.1687
72.8664,430.996
72.8774,460.6901
72.8884,445.6162
72.8994,465.1418
72.9104,483.4649
72.9214,467.4638
72.9324,445.2215
72.9434,461.3113
72.9544,440.9877
72.9654,470.9848
72.9764,447.4535
72.9874,491.4561
72.9984,478.0883
73.0094,464.1365
73.0204,454.4651
73.0314,450.8582
73.0424,448.1142
73.0534,480.0725
73.0644,464.8452
73.0754,460.8257
73.0864,450.9009
73.0974,469.0091
73.1084,479.3676
73.1194,451.4684
73.1304,432.707
73.1414,470.3552
73.1524,485.2803
73.1634,482.7225
73.1744,474.6185
73.1854,471.1631
73.1964,475.018
73.2074,477.7548
73.2184,477.7905
73.2294,468.6364
73.2404,461.3109
73.2514,481.6586
73.2624,464.9526
73.2734,460.6068
73.2844,461.8898
73.2954,470.2569
73.3064,471.8224
73.3174,452.454
73.3284,461.0314
73.3394,482.657
73.3504,487.3987
73.3614,470.4333
73.3724,474.3951
73.3834,474.7039
73.3944,486.9118
73.4054,500.6392
73.4164,492.1994
73.4274,473.2535
73.4384,490.787
73.4494,502.4238
73.4604,508.7936
73.4714,513.946
73.4824,455.0974
73.4934,473.0537
73.5044,487.3201
73.5154,500.5705
73.5264,524.7466
73.5374,485.4369
73.5484,467.5972
73.5594,436.7813
73.5704,486.0622
73.5814,465.0615
73.5924,482.664
73.6034,450.6406
73.6144,501.5691
73.6254,563.4225
73.6364,500.8566
73.6474,510.8635
73.6584,470.4007
73.6694,519.7174
73.6804,474.4689
73.6914,521.1333
73.7024,569.741
73.7134,503.9104
73.7244,490.9041
73.7354,487.1961
73.7464,522.6432
73.7574,493.8969
73.7684,508.5216
73.7794,504.6612
73.7904,534.0707
73.8014,524.7896
73.8124,523.4701
73.8234,522.8462
73.8344,503.5258
73.8454,545.2736
73.8564,496.3336
73.8674,516.3893
73.8784,511.2951
73.8894,522.2213
73.9004,532.3961
73.9114,539.4527
73.9224,494.1149
73.9334,490.0543
73.9444,496.2548
73.9554,474.4957
73.9664,492.5836
73.9774,509.5286
73.9884,479.5441
73.9994,482.1203
74.0104,496.2249
74.0214,492.1271
74.0324,501.7333
74.0434,490.8781
74.0544,495.5517
74.0654,504.4033
74.0764,497.0875
74.0874,493.3899
74.0984,524.0596
74.1094,510.0251
74.1204,489.8467
74.1314,470.1981
74.1424,475.1747
74.1534,499.0205
74.1644,488.4242
74.1754,479.7688
74.1864,477.1416
74.1974,484.477
74.2084,476.1202
74.2194,460.8495
74.2304,481.5521
74.2414,488.8533
74.2524,457.6337
74.2634,458.1576
74.2744,429.9757
74.2854,426.0888
74.2964,449.1664
74.3074,448.6233
74.3184,452.5119
74.3294,455.3048
74.3404,468.4422
74.3514,467.522
74.3624,454.7511
74.3734,410.0603
74.3844,435.3457
74.3954,442.6174
74.4064,465.2182
74.4174,457.7166
74.4284,461.2523
74.4394,472.8173
74.4504,460.8833
74.4614,457.1573
74.4724,471.5346
74.4834,435.8402
74.4944,480.1349
74.5054,493.243
74.5164,463.2592
74.5274,475.5794
74.5384,485.3585
74.5494,434.2442
74.5604,448.1595
74.5714,482.7959
74.5824,469.3317
74.5934,458.108
74.6044,466.8938
74.6154,424.4133
74.6264,451.9459
74.6374,449.5279
74.6484,437.8451
74.6594,435.9589
74.6704,450.1524
74.6814,453.9472
74.6924,468.2545
74.7034,418.4702
74.7144,433.3853
74.7254,450.9425
74.7364,415.0995
74.7474,431.5431
74.7584,452.2073
74.7694,445.1656
74.7804,471.4026
74.7914,454.2007
74.8024,415.5545
74.8134,469.224
74.8244,460.2278
74.8354,479.6415
74.8464,493.0835
74.8574,447.4451
74.8684,424.5127
74.8794,431.8411
74.8904,454.3898
74.9014,454.6776
74.9124,456.1075
74.9234,447.8713
74.9344,452.2576
74.9454,465.5727
74.9564,470.7939
74.9674,446.2646
74.9784,464.0313
74.9894,472.0489
75.0004,447.4314
75.0114,441.6875
75.0224,426.1758
75.0334,431.2093
75.0444,452.1884
75.0554,406.1222
75.0664,424.2012
75.0774,439.8578
75.0884,441.0773
75.0994,456.3332
75.1104,439.075
75.1214,431.7404
75.1324,440.7017
75.1434,417.5776
75.1544,426.149
75.1654,444.2586
75.1764,443.7168
75.1874,431.8838
75.1984,433.9942
75.2094,436.643
75.2204,446.3615
75.2314,425.6898
75.2424,457.2057
75.2534,444.8943
75.2644,428.0805
75.2754,469.629
75.2864,436.6
75.2974,459.2867
75.3084,440.0143
75.3194,442.4181
75.3304,442.559
75.3414,413.917
75.3524,430.6331
75.3634,440.9539
75.3744,470.4738
75.3854,439.9946
75.3964,470.497
75.4074,461.5042
75.4184,451.7919
75.4294,458.3944
75.4404,489.9075
75.4514,428.425
75.4624,442.3011
75.4734,433.2654
75.4844,436.943
75.4954,460.9531
75.5064,440.4445
75.5174,482.8642
75.5284,477.9428
75.5394,504.0472
75.5504,500.7755
75.5614,437.3024
75.5724,477.1412
75.5834,449.855
75.5944,483.718
75.6054,471.5316
75.6164,507.2743
75.6274,433.7652
75.6384,453.4722
75.6494,477.4438
75.6604,503.0879
75.6714,491.6013
75.6824,464.9329
75.6934,478.2457
75.7044,480.3367
75.7154,496.0505
75.7264,466.4286
75.7374,487.7316
75.7484,483.3504
75.7594,473.1209
75.7704,468.5574
75.7814,459.5063
75.7924,462.227
75.8034,477.1827
75.8144,478.407
75.8254,507.9688
75.8364,509.7652
75.8474,499.2617
75.8584,539.2738
75.8694,574.0174
75.8804,584.8375
75.8914,603.4627
75.9024,617.6026
75.9134,641.1864
75.9244,642.5733
75.9354,695.8297
75.9464,762.6326
75.9574,825.3134
75.9684,855.6328
75.9794,904.3412
75.9904,951.1649
76.0014,1008.2725
76.0124,1075.0591
76.0234,1020.322
76.0344,953.5926
76.0454,877.8394
76.0564,781.6346
76.0674,735.6192
76.0784,708.5159
76.0894,654.9855
76.1004,633.6741
76.1114,599.6828
76.1224,627.3154
76.1334,643.8672
76.1444,635.0446
76.1554,648.1812
76.1664,679.4252
76.1774,708.5224
76.1884,755.1639
76.1994,721.489
76.2104,726.5332
76.2214,709.9594
76.2324,657.3503
76.2434,632.8248
76.2544,575.0017
76.2654,577.8763
76.2764,542.5595
76.2874,520.223
76.2984,547.5446
76.3094,471.1327
76.3204,452.8814
76.3314,464.1182
76.3424,453.6665
76.3534,474.0484
76.3644,453.6812
76.3754,444.168
76.3864,420.1531
76.3974,431.0828
76.4084,444.5449
76.4194,420.2744
76.4304,428.401
76.4414,416.7624
76.4524,446.5284
76.4634,439.3627
76.4744,430.161
76.4854,419.0883
76.4964,481.6314
76.5074,493.0982
76.5184,476.4165
76.5294,420.7441
76.5404,460.0524
76.5514,419.9836
76.5624,444.1417
76.5734,449
76.5844,452.6526
76.5954,450.3266
76.6064,408.4932
76.6174,437.6997
76.6284,422.0725
76.6394,439.8289
76.6504,448.6379
76.6614,443.9372
76.6724,394.3736
76.6834,399.5096
76.6944,411.6489
76.7054,420.202
76.7164,429.7671
76.7274,422.7379
76.7384,427.3618
76.7494,404.593
76.7604,404.6503
76.7714,422.4285
76.7824,439.5561
76.7934,404.8935
76.8044,410.27
76.8154,434.473
76.8264,427.7211
76.8374,406.0685
76.8484,400.1575
76.8594,418.9649
76.8704,421.518
76.8814,439.6023
76.8924,424.2234
76.9034,423.9937
76.9144,449.6687
76.9254,430.3565
76.9364,413.1755
76.9474,420.6865
76.9584,441.1861
76.9694,441.6144
76.9804,437
76.9914,443.6963
77.0024,442.2266
77.0134,419.1737
77.0244,405.0545
77.0354,381.4362
77.0464,373.7311
77.0574,415.629
77.0684,420.932
77.0794,418.768
77.0904,439.2865
77.1014,410.1283
77.1124,410.658
77.1234,431.7938
77.1344,414.4353
77.1454,395.691
77.1564,392.146
77.1674,399.7966
77.1784,422.9644
77.1894,442.0356
77.2004,413.2926
77.2114,415.4927
77.2224,398.3729
77.2334,388.5397
77.2444,420.379
77.2554,411.3892
77.2664,456.9145
77.2774,399.6374
77.2884,419.9703
77.2994,400.5649
77.3104,439.9833
77.3214,402.9206
77.3324,424.835
77.3434,402.1188
77.3544,391.4827
77.3654,422.7877
77.3764,431.0998
77.3874,430.991
77.3984,418.5217
77.4094,393.8344
77.4204,433.1265
77.4314,416.967
77.4424,450.4299
77.4534,458.8405
77.4644,441.8297
77.4754,431.1044
77.4864,439.8909
77.4974,438.2997
77.5084,419.785
77.5194,422.7204
77.5304,453.8341
77.5414,426.9277
77.5524,396.3718
77.5634,415.2768
77.5744,442.4316
77.5854,441.3335
77.5964,439.2853
77.6074,411.1256
77.6184,406.6257
77.6294,434.4753
77.6404,445.4988
77.6514,440.1064
77.6624,423.837
77.6734,409.2887
77.6844,413.8017
77.6954,405.1628
77.7064,430.8113
77.7174,433.5192
77.7284,419.6855
77.7394,401.9566
77.7504,414.0491
77.7614,418.4
77.7724,416.0498
77.7834,420.8908
77.7944,430.7706
77.8054,413.5167
77.8164,437.585
77.8274,462.17
77.8384,438.0546
77.8494,430.655
77.8604,420.5469
77.8714,439.7694
77.8824,448.0132
77.8934,428.7401
77.9044,407.8941
77.9154,421.6582
77.9264,437.1437
77.9374,443.6333
77.9484,436.1326
77.9594,420.9801
77.9704,420.8177
77.9814,435.9648
77.9924,470.7365
78.0034,426.1732
78.0144,418.6889
78.0254,442.2747
78.0364,438.6272
78.0474,460.788
78.0584,450.3484
78.0694,454.9932
78.0804,469.2966
78.0914,464.7089
78.1024,493.1528
78.1134,460.914
78.1244,539.3978
78.1354,480.5429
78.1464,481.8009
78.1574,541.3213
78.1684,566.6345
78.1794,527.1175
78.1904,597.1777
78.2014,616.9091
78.2124,656.439
78.2234,611.2141
78.2344,593.6541
78.2454,570.5838
78.2564,550.1718
78.2674,527.1383
78.2784,500.8615
78.2894,502.7212
78.3004,468.6292
78.3114,496.398
78.3224,481.9411
78.3334,486.8309
78.3444,484.5486
78.3554,481.6807
78.3664,504.4164
78.3774,531.0353
78.3884,525.3836
78.3994,542.3871
78.4104,559.3102
78.4214,505.0938
78.4324,516.5717
78.4434,475.5749
78.4544,454.2176
78.4654,452.7153
78.4764,467.1456
78.4874,439.1994
78.4984,421.2834
78.5094,405.3421
78.5204,423.1975
78.5314,450.8983
78.5424,442.4693
78.5534,443.4765
78.5644,417.4458
78.5754,415.714
78.5864,405.8304
78.5974,399.3878
78.6084,423.6226
78.6194,403.1664
78.6304,402.5587
78.6414,416.0881
78.6524,409.9348
78.6634,420.1515
78.6744,430.8026
78.6854,440.2498
78.6964,421.3093
78.7074,427.1332
78.7184,414.4311
78.7294,403.3394
78.7404,426.0933
78.7514,426.8208
78.7624,433.9698
78.7734,428.4452
78.7844,424.0192
78.7954,450.3584
78.8064,448.0469
78.8174,444.8398
78.8284,428.6664
78.8394,423.4691
78.8504,412.0509
78.8614,433.0506
78.8724,412.4582
78.8834,413.4043
78.8944,446.2473
78.9054,453.1917
78.9164,418.5363
78.9274,435.9856
78.9384,419.8714
78.9494,446.0103
78.9604,376.2034
78.9714,409.1009
78.9824,400.691
78.9934,410.7858
79.0044,444.1612
79.0154,399.5097
79.0264,397.8869
79.0374,401.8231
79.0484,445.5625
79.0594,410.7272
79.0704,398.0883
79.0814,409.9458
79.0924,398.845
79.1034,390.7968
79.1144,415.5787
79.1254,384.5146
79.1364,410.6017
79.1474,405.6294
79.1584,413.1819
79.1694,415.1033
79.1804,417.3866
79.1914,426.4659
79.2024,418.2421
79.2134,427.1225
79.2244,404.612
79.2354,426.053
79.2464,418.3251
79.2574,427.8301
79.2684,437.0114
79.2794,418.8449
79.2904,432.9538
79.3014,434.4955
79.3124,424.4761
79.3234,408.174
79.3344,416.9297
79.3454,435.0026
79.3564,401.5118
79.3674,399.9597
79.3784,456.6943
79.3894,442.4516
79.4004,411.7819
79.4114,409.2955
79.4224,404.21
79.4334,411.2826
79.4444,395.7265
79.4554,421.188
79.4664,420.1221
79.4774,411.8163
79.4884,422.2179
79.4994,423.6401
79.5104,410.8301
79.5214,398.5103
79.5324,401.0709
79.5434,416.9865
79.5544,402.9281
79.5654,423.0216
79.5764,435.1209
79.5874,412.4375
79.5984,410.7478
79.6094,407.2408
79.6204,398.5353
79.6314,419.7793
79.6424,432.4729
79.6534,423.2712
79.6644,423.5945
79.6754,397.9169
79.6864,397.6187
79.6974,405.3865
79.7084,404.589
79.7194,402.5644
79.7304,447.2663
79.7414,431.3347
79.7524,419.2453
79.7634,419.767
79.7744,437.1438
79.7854,404.7968
79.7964,440.8193
79.8074,413.6415
79.8184,436.4803
79.8294,437.9557
79.8404,420.7928
